Sample Index, EXG Channel 0, EXG Channel 1, EXG Channel 2, EXG Channel 3, EXG Channel 4, EXG Channel 5, EXG Channel 6, EXG Channel 7, EXG Channel 8, EXG Channel 9, EXG Channel 10, EXG Channel 11, EXG Channel 12, EXG Channel 13, EXG Channel 14, EXG Channel 15, Accel Channel 0, Accel Channel 1, Accel Channel 2, Other, Other, Other, Other, Other, Other, Other, Analog Channel 0, Analog Channel 1, Analog Channel 2, Timestamp, Other, Timestamp (Formatted)
0.0, 47623.364344044254, 44748.550027436024, 45959.2993210911, 48943.480723319146, 40138.815657951316, 43209.07362807675, 42129.618481352154, 41242.36598519874, 54224.46033054118, 48720.74558982201, 27644.972818490605, 47081.20043053632, 52164.188285373246, 49224.084523211066, 44300.73282727395, -90677.02629292326, 0.0, 0.0, 0.0, 196.0, 0.0, 0.0, 0.0, 121.0, 40.0, 25.5, 0.0, 0.0, 0.0, 1.655806868120726E9, 0.0, 2022-06-21 19:21:08.120
2.0, 95042.14317108908, 89704.25602248384, 97684.2087726842, 100807.88741205781, 80249.82574580023, 86439.18024768594, 86319.44195263887, 83665.66403694917, 111207.17063035615, 94229.97018456104, 48581.62833233218, 87311.2112058653, 105260.39961104389, 101149.28795686817, 88215.18280687128, -187500.02235174447, 0.0, 0.0, 0.0, 196.0, 0.0, 0.0, 0.0, 121.0, 40.0, 38.5, 0.0, 0.0, 0.0, 1.655806868126706E9, 0.0, 2022-06-21 19:21:08.126
4.0, 95161.99322485844, 89503.24678459726, 95314.02979064343, 99540.02941131942, 80267.9977140424, 86396.13078786503, 85234.0188901447, 82986.75215086367, 112004.61381728815, 98355.54341739934, 55630.00507712425, 95019.67966791149, 105211.9857325537, 101245.71338244838, 89088.95720111814, -186989.6873223409, 0.0, 0.0, 0.0, 196.0, 0.0, 0.0, 0.0, 121.0, 40.0, 46.0, 0.0, 0.0, 0.0, 1.6558068681336892E9, 0.0, 2022-06-21 19:21:08.133
6.0, 95045.5853397352, 89713.21907201041, 96919.3767809125, 100427.46072142849, 80242.27085617433, 86418.50488406478, 86089.44250219375, 83536.44860225303, 111166.49045544749, 94059.60518832269, 48585.0705009783, 86939.32288161789, 105245.46864574775, 101124.85750017852, 88094.9974769351, -187500.02235174447, 0.0, 0.0, 0.0, 196.0, 0.0, 96.0, 0.0, 121.0, 40.0, 54.0, 0.0, 0.0, 0.0, 1.6558068681408339E9, 0.0, 2022-06-21 19:21:08.140
8.0, 95145.63174791716, 89494.30608681514, 96095.04444540078, 99918.57855541451, 80268.53415590932, 86398.56712801065, 85467.3711022581, 83107.7197918558, 112024.59627683119, 98450.62773831222, 55474.1463630374, 95269.59452266629, 105215.91963957783, 101269.51799029327, 89186.96960055466, -186955.48915332428, 0.0, 0.0, 0.0, 196.0, 17.5, 96.0, 0.0, 121.0, 40.0, 62.0, 0.0, 0.0, 0.0, 1.6558068681497564E9, 0.0, 2022-06-21 19:21:08.149
10.0, 95084.90205823208, 89688.27452519829, 96109.50602406336, 100034.71821960428, 80239.54394335079, 86416.33676485262, 85819.18755998464, 83387.96596383644, 111129.07363522932, 94037.38755433411, 48849.84926579586, 86822.53501683891, 105237.46672123275, 101111.5135087387, 88010.35142068284, -187500.02235174447, 0.0, 0.0, 0.0, 196.0, 0.0, 0.0, 0.0, 121.0, 40.0, 70.0, 0.0, 0.0, 0.0, 1.6558068681577597E9, 0.0, 2022-06-21 19:21:08.157
12.0, 95131.97483205496, 89511.87455795701, 96880.0600624156, 100306.35896996963, 80267.81890008676, 86398.3436105661, 85710.46867495403, 83245.42888944494, 112038.67787583804, 98399.5763539763, 55107.33188478135, 95230.21074893604, 105219.31710473503, 101263.81829545717, 89238.26685407959, -186938.94886242735, 0.0, 0.0, 0.0, 196.0, 0.0, 0.0, 0.0, 121.0, 40.0, 78.0, 0.0, 0.0, 0.0, 1.6558068681667488E9, 0.0, 2022-06-21 19:21:08.166
14.0, 95095.58619208173, 89706.73706611837, 95315.01326739947, 99642.24393871355, 80243.50020211938, 86423.35521261158, 85577.96753382296, 83258.45995646238, 111116.08727170077, 94183.14327992717, 49345.99093747031, 87013.84359763189, 105233.95749735326, 101111.1111773385, 87976.82380399988, -187500.02235174447, 0.0, 0.0, 0.0, 196.0, 0.0, 0.0, 0.0, 121.0, 40.0, 86.0, 0.0, 0.0, 0.0, 1.6558068681737833E9, 0.0, 2022-06-21 19:21:08.173
16.0, 95078.10712791767, 89524.95032846337, 97636.82307443894, 100672.32408193637, 80260.66634186106, 86384.2396598148, 85956.36021570685, 83373.97377180742, 112012.74985226987, 98225.70213385846, 54553.43330543439, 94951.88682697855, 105224.0333228151, 101264.53355127973, 89263.74784275865, -186970.42011862042, 0.0, 0.0, 0.0, 196.0, 0.0, 80.0, 0.0, 121.0, 40.0, 94.0, 0.0, 0.0, 0.0, 1.6558068681827807E9, 0.0, 2022-06-21 19:21:08.182
18.0, 95114.94280278002, 89655.23864689334, 94572.10833693843, 99267.98632955388, 80259.25818196037, 86419.04132593171, 85335.0934785716, 83123.20955076332, 111157.59446115428, 94451.4983238576, 50039.31969872948, 87476.1000247121, 105240.97594511222, 101102.28223827867, 87985.38452212626, -187500.02235174447, 0.0, 0.0, 0.0, 196.0, 17.5, 112.0, 0.0, 121.0, 40.0, 102.0, 0.0, 0.0, 0.0, 1.6558068681898768E9, 0.0, 2022-06-21 19:21:08.189
20.0, 95084.23150589842, 89533.39928786746, 98295.77485272585, 101005.94621967629, 80267.17069949755, 86405.1385408805, 86211.77359959765, 83518.0084130774, 111942.90065084705, 97884.3015890481, 53824.83349142474, 94385.67243643671, 105228.0342850726, 101264.35473732409, 89251.94612168624, -187018.85634885507, 0.0, 0.0, 0.0, 196.0, 0.0, 0.0, 0.0, 121.0, 40.0, 110.0, 0.0, 0.0, 0.0, 1.6558068681977873E9, 0.0, 2022-06-21 19:21:08.197
22.0, 95149.27508226337, 89662.83824000815, 93957.36830918412, 98959.73342177075, 80251.30096093428, 86416.91791020846, 85102.05419088056, 82983.24292698418, 111218.88294445074, 94862.81512532415, 50875.11847914678, 88208.81255970152, 105225.41913097134, 101120.94594489885, 88041.44269722018, -187425.85926364176, 0.0, 0.0, 0.0, 196.0, 0.0, 0.0, 0.0, 121.0, 40.0, 118.0, 0.0, 0.0, 0.0, 1.655806868204818E9, 0.0, 2022-06-21 19:21:08.204
24.0, 95056.89532242958, 89553.89583753298, 98804.18763210627, 101268.24394085932, 80254.7878330693, 86396.17549135393, 86391.81690118514, 83618.79242882639, 111863.21668186388, 97454.09756351681, 52972.0026817325, 93604.07663632353, 105234.47158747574, 101256.21870234236, 89177.67127486126, -187123.28369895025, 0.0, 0.0, 0.0, 196.0, 0.0, 0.0, 0.0, 121.0, 40.0, 126.0, 0.0, 0.0, 0.0, 1.6558068682138336E9, 0.0, 2022-06-21 19:21:08.213
26.0, 95159.959216113, 89600.07454157765, 93499.09049261696, 98726.67178233527, 80260.62163837215, 86409.11715139356, 84917.47348516864, 82874.6134489314, 111309.56397170592, 95355.80520103041, 51759.19702758754, 89099.61898322332, 105228.19074728379, 101126.75739845722, 88132.5037041311, -187356.45709710804, 0.0, 0.0, 0.0, 196.0, 0.0, 88.0, 0.0, 121.0, 40.0, 134.0, 0.0, 0.0, 0.0, 1.655806868221927E9, 0.0, 2022-06-21 19:21:08.221
28.0, 95012.30359224124, 89584.76359662577, 99177.01472962079, 101464.69342287701, 80264.98022854092, 86400.31056407817, 86554.1352694196, 83719.37527887528, 111758.74462827978, 96936.40881018744, 52057.61516781034, 92651.2664736827, 105250.38602952792, 101244.81931267015, 89087.59374470636, -187140.58394915867, 0.0, 0.0, 0.0, 196.0, 17.5, 80.0, 0.0, 121.0, 40.0, 142.0, 0.0, 0.0, 0.0, 1.6558068682288415E9, 0.0, 2022-06-21 19:21:08.228
30.0, 95152.85136137622, 89609.37286727106, 93244.32530931536, 98585.09583295535, 80260.46517616096, 86405.0938373916, 84778.19976546762, 82787.2404798556, 111390.81256280096, 95912.92243157893, 52704.36289362465, 90172.56977231143, 105220.18882276879, 101146.94102370036, 88259.99805450416, -187276.99664556942, 0.0, 0.0, 0.0, 196.0, 0.0, 0.0, 0.0, 121.0, 40.0, 150.0, 0.0, 0.0, 0.0, 1.6558068682368906E9, 0.0, 2022-06-21 19:21:08.236
32.0, 95032.50956922885, 89625.28730932323, 99329.63244076162, 101547.8195605063, 80251.36801616765, 86391.74984595178, 86628.61128194467, 83758.96021830563, 111640.03451347763, 96365.65701552118, 51138.24321487465, 91576.30402759362, 105251.95065163978, 101225.73092290532, 88946.4424784711, -187195.74805447436, 0.0, 0.0, 0.0, 196.0, 0.0, 0.0, 0.0, 121.0, 40.0, 158.0, 0.0, 0.0, 0.0, 1.655806868246168E9, 0.0, 2022-06-21 19:21:08.246
34.0, 95216.64324005166, 89584.67418964794, 93190.90464006718, 98547.52255052597, 80263.72853085144, 86416.31441310816, 84720.55461651739, 82755.72452017362, 111512.60721833793, 96476.02992964149, 53574.09162212511, 91239.37383167433, 105217.37250296742, 101149.01973593471, 88400.18819572785, -187240.4962468739, 0.0, 0.0, 0.0, 196.0, 0.0, 0.0, 0.0, 121.0, 40.0, 166.0, 0.0, 0.0, 0.0, 1.655806868253959E9, 0.0, 2022-06-21 19:21:08.253
36.0, 95014.29289749777, 89635.81498096169, 99290.91921936504, 101559.3754123897, 80264.42143492955, 86422.61760504456, 86698.23696592296, 83821.8356754584, 111541.61978264092, 95793.1170812985, 50286.217067982805, 90463.41067116389, 105267.35100356949, 101226.82615838363, 88804.39714245763, -187257.43886917102, 0.0, 0.0, 0.0, 196.0, 0.0, 80.0, 0.0, 121.0, 40.0, 174.0, 0.0, 0.0, 0.0, 1.6558068682609499E9, 0.0, 2022-06-21 19:21:08.260
38.0, 95164.1613440706, 89548.73258456381, 93361.1355258388, 98615.20363273665, 80266.96953379746, 86394.54381400869, 84722.43216305164, 82736.2785024975, 111615.17937364333, 97035.56114859118, 54321.75747415513, 92325.2439290576, 105227.00610482767, 101184.11197472955, 88572.36368326709, -187214.41176109455, 0.0, 0.0, 0.0, 196.0, 17.5, 80.0, 0.0, 121.0, 40.0, 182.0, 0.0, 0.0, 0.0, 1.6558068682689848E9, 0.0, 2022-06-21 19:21:08.268
40.0, 94990.84591756415, 89661.5641905742, 99056.96351015134, 101453.96458553846, 80259.9957895274, 86428.11613418057, 86669.31380859778, 83816.15833236674, 111379.8378562734, 95235.23989143848, 49541.21107354297, 89387.15182389639, 105267.6415762474, 101198.99823653678, 88632.80280027424, -187335.8711404647, 0.0, 0.0, 0.0, 196.0, 0.0, 0.0, 0.0, 121.0, 40.0, 190.0, 0.0, 0.0, 0.0, 1.6558068682779908E9, 0.0, 2022-06-21 19:21:08.277
42.0, 95182.95916115752, 89545.40217463997, 93723.14437903695, 98773.99042534715, 80263.81793782926, 86390.27463081773, 84796.75171336552, 82760.7313109316, 111720.74666270574, 97520.59400327136, 54935.29050770885, 93294.28145817298, 105215.36084596645, 101199.91465805944, 88733.45270555648, -187180.9288479005, 0.0, 0.0, 0.0, 196.0, 0.0, 0.0, 0.0, 121.0, 40.0, 198.0, 0.0, 0.0, 0.0, 1.6558068682869067E9, 0.0, 2022-06-21 19:21:08.286
44.0, 95033.64950819606, 89687.69337984246, 98628.90525208774, 101252.97769939635, 80244.14840270858, 86406.61375601456, 86558.67267354402, 83761.79888985144, 111262.35708741631, 94747.88245533497, 48985.904334295315, 88414.38155345697, 105261.6960122223, 101164.84477100907, 88449.58555097408, -187423.98171710753, 0.0, 0.0, 0.0, 196.0, 0.0, 0.0, 0.0, 121.0, 40.0, 206.0, 0.0, 0.0, 0.0, 1.6558068682930987E9, 0.0, 2022-06-21 19:21:08.293
46.0, 95181.93098091257, 89512.52275854621, 94248.43272548112, 99028.12975980398, 80276.58078391323, 86393.35917155257, 84937.03126156703, 82820.43282037173, 111832.86301289356, 97933.78835127216, 55355.615062190904, 94125.67694493258, 105216.38902621139, 101212.76691112125, 88884.95282947455, -187092.84062300215, 0.0, 0.0, 0.0, 196.0, 0.0, 88.0, 0.0, 121.0, 40.0, 214.0, 0.0, 0.0, 0.0, 1.6558068683019724E9, 0.0, 2022-06-21 19:21:08.301
48.0, 94999.45133917945, 89707.65348764104, 98044.29537585919, 100979.50410598566, 80255.7936615698, 86432.54177958272, 86426.73032602434, 83704.80194149041, 111174.26886251794, 94367.1204885388, 48606.81874833331, 87636.7867156013, 105274.07887865054, 101160.64264305147, 88306.51203471566, -187500.02235174447, 0.0, 0.0, 0.0, 196.0, 17.5, 64.0, 0.0, 121.0, 40.0, 222.0, 0.0, 0.0, 0.0, 1.655806868310063E9, 0.0, 2022-06-21 19:21:08.310
50.0, 95150.16915204158, 89477.40816800692, 94927.29990807771, 99345.72569676944, 80272.24454548891, 86397.0919128766, 85117.27572885463, 82912.81258020551, 111887.37891762007, 98231.42418043902, 55540.68750628085, 94761.87464736399, 105223.13925303689, 101249.35671679459, 89034.8659795363, -187019.07986629964, 0.0, 0.0, 0.0, 196.0, 0.0, 0.0, 0.0, 121.0, 40.0, 230.0, 0.0, 0.0, 0.0, 1.6558068683170335E9, 0.0, 2022-06-21 19:21:08.317
52.0, 95037.51635998682, 89713.1296650326, 97333.91223358062, 100630.68278201614, 80245.60126609818, 86423.33286086713, 86206.63269837292, 83590.04808545686, 111093.46730631201, 94110.99184882545, 48509.99099135292, 87097.55088061701, 105262.38891630042, 101135.42987530588, 88161.58332366745, -187500.02235174447, 0.0, 0.0, 0.0, 196.0, 0.0, 0.0, 0.0, 121.0, 40.0, 238.0, 0.0, 0.0, 0.0, 1.6558068683250487E9, 0.0, 2022-06-21 19:21:08.325
54.0, 95126.34219245223, 89498.28469732818, 95683.99586486768, 99714.77534947102, 80269.27176347635, 86387.83829067211, 85338.37918500653, 83028.48285776173, 111930.98717105236, 98397.09531034176, 55533.467892821776, 95151.44320147553, 105227.5872501835, 101248.73086794984, 89147.02703321303, -186972.45412736587, 0.0, 0.0, 0.0, 196.0, 0.0, 0.0, 0.0, 121.0, 40.0, 246.0, 0.0, 0.0, 0.0, 1.6558068683340747E9, 0.0, 2022-06-21 19:21:08.334
56.0, 95054.16840960603, 89700.92561256, 96549.81303808845, 100246.90332971852, 80232.92782699202, 86418.92956720943, 85960.62939889781, 83457.52459258135, 111039.5548986858, 94024.87057743914, 48663.68158622761, 86839.56704611387, 105258.03032613163, 101122.89054666646, 88051.0315955915, -187500.02235174447, 0.0, 0.0, 0.0, 196.0, 0.0, 112.0, 0.0, 121.0, 40.5, 126.0, 0.0, 0.0, 0.0, 1.6558068683410852E9, 0.0, 2022-06-21 19:21:08.341
58.0, 95096.65907581558, 89482.77258667619, 96480.54498202146, 100104.23214486029, 80265.31550470776, 86389.80524418417, 85591.57974619625, 83165.11907161702, 111947.19218578246, 98431.53934854739, 55298.12637545185, 95286.62655194123, 105247.05561960407, 101257.0010133983, 89222.35241202741, -186959.4230603484, 0.0, 0.0, 0.0, 196.0, 17.0, 184.0, 0.0, 121.0, 41.0, 6.0, 0.0, 0.0, 0.0, 1.6558068683490503E9, 0.0, 2022-06-21 19:21:08.349
60.0, 95063.95847367746, 89688.09571124264, 95743.00447022969, 99850.80806622602, 80242.67318757453, 86406.77021822575, 85719.09644831378, 83326.00692820632, 111021.8076135883, 94079.29707518782, 49049.36093680393, 86887.01979959248, 105260.15374185488, 101108.54072672615, 87998.79556879945, -187500.02235174447, 0.0, 0.0, 0.0, 196.0, 0.0, 0.0, 0.0, 121.0, 41.0, 14.0, 0.0, 0.0, 0.0, 1.6558068683570793E9, 0.0, 2022-06-21 19:21:08.357
62.0, 95101.75527355139, 89515.20496788085, 97251.03196514034, 100488.14570762464, 80263.84028957371, 86395.95197390938, 85830.45283919011, 83297.30728832571, 111968.47104650391, 98318.88655649264, 54842.66487868606, 95133.49475067791, 105236.21502354325, 101265.51702803577, 89265.04424393705, -186964.36279587302, 0.0, 0.0, 0.0, 196.0, 0.0, 0.0, 0.0, 121.0, 41.0, 22.0, 0.0, 0.0, 0.0, 1.6558068683661027E9, 0.0, 2022-06-21 19:21:08.366
64.0, 95090.6464565571, 89671.53306860126, 94954.94901596893, 99463.72055574901, 80247.43410914352, 86417.00731718628, 85448.43917470446, 83171.5787257646, 111047.80269238981, 94292.08568240234, 49626.57238561778, 87198.334896366, 105245.84862540348, 101117.90610765292, 87977.09202493334, -187500.02235174447, 0.0, 0.0, 0.0, 196.0, 0.0, 0.0, 0.0, 121.0, 41.0, 30.0, 0.0, 0.0, 0.0, 1.6558068683731117E9, 0.0, 2022-06-21 19:21:08.373
66.0, 95047.4852380139, 89508.20887186634, 97957.7717730727, 100834.32952574844, 80265.2931529633, 86392.77802619673, 86083.69810386874, 83428.0426416448, 111888.22828390937, 98060.142762678, 54183.668396910245, 94700.94379197882, 105240.61831720095, 101259.72792622185, 89263.30080786954, -187027.640584426, 0.0, 0.0, 0.0, 196.0, 0.0, 88.0, 0.0, 121.0, 41.0, 38.0, 0.0, 0.0, 0.0, 1.6558068683811884E9, 0.0, 2022-06-21 19:21:08.381
68.0, 95109.3995701551, 89639.74888798581, 94280.17220260766, 99114.72041782385, 80258.38646392661, 86416.58263404162, 85231.40373604343, 83051.5051545507, 111078.08930612676, 94608.38521818939, 50378.842697005595, 87781.98364758297, 105242.16058756836, 101112.42993026137, 88015.55937714093, -187488.37709288325, 0.0, 0.0, 0.0, 196.0, 17.0, 184.0, 0.0, 121.0, 41.0, 46.0, 0.0, 0.0, 0.0, 1.6558068683903377E9, 0.0, 2022-06-21 19:21:08.390
70.0, 95021.6242696791, 89514.31089810263, 98557.02204191948, 101139.45318930784, 80269.8976123211, 86394.05207563068, 86302.61108906401, 83558.1744978636, 111841.22256531985, 97688.52265936407, 53419.93164061686, 94051.29033938532, 105246.7426951817, 101254.56467325267, 89230.55550224251, -187059.08948887463, 0.0, 0.0, 0.0, 196.0, 0.0, 0.0, 0.0, 121.0, 41.0, 54.0, 0.0, 0.0, 0.0, 1.6558068683962076E9, 0.0, 2022-06-21 19:21:08.396
72.0, 95122.87767206164, 89619.36409704258, 93720.3727627245, 98836.79882726655, 80258.63233311562, 86416.15795089697, 85004.9135094778, 82919.74162098666, 111171.31843224984, 95067.91473244605, 51252.32651857454, 88603.65612550451, 105234.67275317584, 101112.49698549474, 88084.44745355219, -187389.96236204653, 0.0, 0.0, 0.0, 196.0, 0.0, 0.0, 0.0, 121.0, 41.0, 62.0, 0.0, 0.0, 0.0, 1.6558068684053075E9, 0.0, 2022-06-21 19:21:08.405
74.0, 95023.77003714682, 89577.56633491116, 98998.93838154536, 101363.35061351665, 80268.46710067596, 86391.57103199614, 86482.1626522735, 83659.9419903686, 111724.63586624098, 97211.60348792118, 52495.418786456445, 93160.64037807469, 105251.28009930612, 101246.71921094885, 89148.50224834708, -187167.1154698271, 0.0, 0.0, 0.0, 196.0, 0.0, 0.0, 0.0, 121.0, 41.0, 70.0, 0.0, 0.0, 0.0, 1.6558068684132264E9, 0.0, 2022-06-21 19:21:08.413
76.0, 95139.79794261431, 89571.6431226305, 93353.84885714637, 98638.49415045908, 80260.33106569422, 86406.09966589209, 84851.84876344785, 82823.58441633993, 111257.8643867808, 95589.29152361055, 52155.22523584667, 89567.46334641735, 105230.64943917388, 101118.4201977754, 88188.561879225, -187342.33079461227, 0.0, 0.0, 0.0, 196.0, 0.0, 112.0, 0.0, 121.0, 41.0, 78.0, 0.0, 0.0, 0.0, 1.6558068684211924E9, 0.0, 2022-06-21 19:21:08.421
78.0, 95004.14520551506, 89572.55954415316, 99267.22637024241, 101515.02955139037, 80256.93360053701, 86411.06175316116, 86600.38102869762, 83742.39757566423, 111616.36401609947, 96655.17916145077, 51573.23051371938, 92136.61755759925, 105261.98658490022, 101250.60841448409, 89026.6628893212, -187196.97740041942, 0.0, 0.0, 0.0, 196.0, 17.0, 152.0, 0.0, 121.0, 41.0, 86.0, 0.0, 0.0, 0.0, 1.655806868429184E9, 0.0, 2022-06-21 19:21:08.429
80.0, 95141.89900659311, 89552.15240146547, 93192.60337264578, 98550.74120172753, 80267.50597566438, 86408.55835778217, 84746.14736391872, 82763.01118886605, 111351.76406523754, 96161.0491467773, 53058.70509847464, 90648.86309490957, 105222.96043908125, 101144.39292483246, 88324.16991283535, -187291.36881725417, 0.0, 0.0, 0.0, 196.0, 0.0, 0.0, 0.0, 121.0, 41.0, 94.0, 0.0, 0.0, 0.0, 1.6558068684372034E9, 0.0, 2022-06-21 19:21:08.437
82.0, 94969.43294637596, 89606.64595444751, 99346.61976654766, 101567.4220403936, 80253.37967316863, 86416.26970961926, 86671.81720397678, 83796.19822456816, 111499.37498562038, 96084.85204992915, 50684.12282277618, 91047.34999505879, 105263.61826224545, 101219.78535888021, 88879.76722476093, -187225.76644727786, 0.0, 0.0, 0.0, 196.0, 0.0, 0.0, 0.0, 121.0, 41.0, 102.0, 0.0, 0.0, 0.0, 1.6558068684462202E9, 0.0, 2022-06-21 19:21:08.446
84.0, 95145.07295430577, 89553.91818927744, 93238.13387610124, 98559.34662334283, 80274.45736818998, 86409.36302058256, 84724.75674447499, 82735.78676411949, 111467.47904628266, 96737.47828453522, 53891.4193381571, 91738.7565062948, 105221.01583731364, 101170.14213444498, 88481.14621414497, -187229.85681651317, 0.0, 0.0, 0.0, 196.0, 0.0, 0.0, 0.0, 121.0, 41.0, 110.0, 0.0, 0.0, 0.0, 1.655806868452358E9, 0.0, 2022-06-21 19:21:08.452
86.0, 94972.22691443287, 89623.94620465592, 99216.08557892867, 101511.27445832187, 80257.00065577039, 86409.31831709365, 86681.78608200385, 83806.6811927177, 111374.87576900433, 95518.01181054256, 49865.93721698967, 89930.27686241589, 105261.2936808221, 101207.96128606335, 88715.5936617367, -187283.23278227245, 0.0, 0.0, 0.0, 196.0, 0.0, 96.0, 0.0, 121.0, 41.0, 118.0, 0.0, 0.0, 0.0, 1.6558068684612813E9, 0.0, 2022-06-21 19:21:08.461
88.0, 95153.87954162117, 89490.7745111912, 93493.34609429195, 98670.6359589858, 80264.30967620727, 86385.15608133747, 84733.96566319057, 82717.95007204414, 111577.47198074723, 97261.47022980098, 54593.06294835365, 92777.77734729974, 105214.7349971217, 101187.8894195425, 88635.52971309779, -187191.90355442805, 0.0, 0.0, 0.0, 196.0, 17.0, 168.0, 0.0, 121.0, 41.0, 126.0, 0.0, 0.0, 0.0, 1.655806868469472E9, 0.0, 2022-06-21 19:21:08.469
90.0, 95002.424121192, 89640.77706823076, 98886.75497612417, 101367.21746530742, 80237.35347239417, 86412.93929969541, 86591.39562742658, 83776.10400630283, 111219.12881363975, 94992.164670487, 49202.895069467435, 88910.1879489646, 105256.71157320877, 101176.73589905929, 88529.51538914625, -187361.59799833276, 0.0, 0.0, 0.0, 196.0, 0.0, 0.0, 0.0, 121.0, 41.0, 134.0, 0.0, 0.0, 0.0, 1.6558068684772785E9, 0.0, 2022-06-21 19:21:08.477
92.0, 95136.24401524592, 89487.30999080063, 93942.61615784361, 98887.4925836912, 80279.95589732598, 86401.76342746775, 84866.44445257717, 82787.50870078907, 111681.54170293114, 97729.60516567293, 55136.14328338424, 93703.25132647173, 105217.81953785653, 101208.60948665255, 88794.47296791947, -187113.89596627903, 0.0, 0.0, 0.0, 196.0, 0.0, 0.0, 0.0, 121.0, 41.0, 142.0, 0.0, 0.0, 0.0, 1.6558068684853327E9, 0.0, 2022-06-21 19:21:08.485
94.0, 94984.54272562775, 89678.48446112686, 98395.30717078534, 101141.62130852, 80262.07450176174, 86413.2969276067, 86502.39098100555, 83734.2615406825, 111148.89963256117, 94554.69632800775, 48726.400581169204, 88013.50301665104, 105286.93113171234, 101182.65911133995, 88380.29514316263, -187460.52681929193, 0.0, 0.0, 0.0, 196.0, 0.0, 0.0, 0.0, 121.0, 41.0, 150.0, 0.0, 0.0, 0.0, 1.65580686849332E9, 0.0, 2022-06-21 19:21:08.493
96.0, 95116.30625919178, 89480.24683955275, 94557.24442687565, 99172.81260166319, 80279.37475197014, 86393.96266865286, 85013.74244853765, 82857.31319872299, 111765.60661382755, 98099.61594338607, 55460.40004019738, 94449.08433545641, 105210.71168311975, 101229.32955376263, 88950.37638549524, -187017.24702325428, 0.0, 0.0, 0.0, 196.0, 0.0, 96.0, 0.0, 121.0, 41.0, 158.0, 0.0, 0.0, 0.0, 1.6558068685013952E9, 0.0, 2022-06-21 19:21:08.501
98.0, 94984.47567039439, 89656.19977190493, 97738.3223460105, 100827.28872624502, 80248.70815857747, 86415.44269507441, 86319.33019391658, 83642.10529829327, 111032.89407883813, 94231.42304795064, 48492.199002766494, 87334.859351499, 105270.9943379157, 101153.7806575037, 88227.61037678843, -187500.02235174447, 0.0, 0.0, 0.0, 196.0, 17.0, 176.0, 0.0, 121.0, 41.0, 166.0, 0.0, 0.0, 0.0, 1.6558068685083585E9, 0.0, 2022-06-21 19:21:08.508
100.0, 95115.12161673566, 89455.07877529608, 95286.26892402994, 99518.8399575758, 80271.81986234426, 86380.12693883502, 85203.68757291885, 82951.50344985766, 111812.32175973913, 98332.23054793246, 55564.04507923664, 94977.05489123522, 105223.04984605908, 101238.44906550039, 89077.28959051248, -186949.14125789897, 0.0, 0.0, 0.0, 196.0, 0.0, 0.0, 0.0, 121.0, 41.0, 174.0, 0.0, 0.0, 0.0, 1.6558068685174296E9, 0.0, 2022-06-21 19:21:08.517
102.0, 95027.34631625966, 89682.23955419536, 96984.19683983289, 100461.10009683372, 80253.93846678, 86426.43975334642, 86094.82927260749, 83520.48945671195, 110969.28101411833, 94048.16109516157, 48519.75870367989, 86924.7718959775, 105265.76402971316, 101135.54163402817, 88105.52514857354, -187500.02235174447, 0.0, 0.0, 0.0, 196.0, 0.0, 0.0, 0.0, 121.0, 41.0, 182.0, 0.0, 0.0, 0.0, 1.6558068685254045E9, 0.0, 2022-06-21 19:21:08.525
104.0, 95101.75527355139, 89480.64917095294, 96071.91038988953, 99903.93816279629, 80285.65559216209, 86401.62931700103, 85464.10774756763, 83098.46616965129, 111874.16903664697, 98430.46646481354, 55425.71013280274, 95241.49837988596, 105237.0420380881, 101265.33821408013, 89187.9530773107, -186953.14222015647, 0.0, 0.0, 0.0, 196.0, 0.0, 0.0, 0.0, 121.0, 41.0, 190.0, 0.0, 0.0, 0.0, 1.655806868533394E9, 0.0, 2022-06-21 19:21:08.533
106.0, 95017.26567951032, 89662.2123911634, 96187.20068779, 100065.11659206351, 80246.7412050654, 86416.58263404162, 85845.98730158655, 83397.24193778538, 110940.04493237079, 94028.91624318555, 48767.147811311224, 86803.82660672982, 105270.41319255986, 101132.03241014868, 88030.780915115, -187500.02235174447, 0.0, 0.0, 0.0, 196.0, 0.0, 88.0, 0.0, 121.0, 41.0, 198.0, 0.0, 0.0, 0.0, 1.655806868540393E9, 0.0, 2022-06-21 19:21:08.540
108.0, 95065.9924824229, 89460.04086256515, 96865.57613200857, 100292.43383317397, 80282.36988572715, 86407.30666009268, 85706.49006444098, 83238.27633121924, 111850.31972531317, 98390.970932361, 55071.99377679751, 95232.1777024481, 105255.86220691947, 101280.42564158746, 89248.0122146621, -186931.46102803483, 0.0, 0.0, 0.0, 196.0, 17.0, 176.0, 0.0, 121.0, 41.0, 206.0, 0.0, 0.0, 0.0, 1.6558068685494971E9, 0.0, 2022-06-21 19:21:08.549
110.0, 95058.45994454145, 89639.43596356345, 95390.67392238068, 99674.65396817375, 80267.37186519765, 86423.3999161005, 85610.33285979425, 83264.74079665433, 110947.01867664084, 94143.98302364147, 49244.80459032114, 86983.10994900584, 105267.23924484721, 101121.88471816597, 87996.80626354292, -187500.02235174447, 0.0, 0.0, 0.0, 196.0, 0.0, 0.0, 0.0, 121.0, 41.0, 214.0, 0.0, 0.0, 0.0, 1.6558068685575705E9, 0.0, 2022-06-21 19:21:08.557
112.0, 95028.01686859333, 89470.99321734825, 97621.62388820933, 100659.3600701523, 80263.70617910697, 86388.91117440596, 85945.83254406841, 83357.05350125475, 111825.48693722332, 98211.55347961826, 54520.28566840717, 94967.04130971925, 105247.43559925981, 101265.04764140221, 89275.54956383104, -186966.44150810738, 0.0, 0.0, 0.0, 196.0, 0.0, 0.0, 0.0, 121.0, 41.0, 222.0, 0.0, 0.0, 0.0, 1.655806868564438E9, 0.0, 2022-06-21 19:21:08.564
114.0, 95064.22669461093, 89641.17939963096, 94639.54354996009, 99293.6908356775, 80251.65858884557, 86402.12105537904, 85325.70574590037, 83108.27858546718, 110952.80777845476, 94416.96487867415, 49941.419058015235, 87441.05248940617, 105246.87680564843, 101108.04898834814, 87977.91903947819, -187500.02235174447, 0.0, 0.0, 0.0, 196.0, 0.0, 0.0, 0.0, 121.0, 41.0, 230.0, 0.0, 0.0, 0.0, 1.6558068685744932E9, 0.0, 2022-06-21 19:21:08.574
116.0, 95048.98280489241, 89467.88632486896, 98266.02468085584, 100983.90739964336, 80274.30090597879, 86386.69835170488, 86187.32079116354, 83479.94339227003, 111793.0322042742, 97899.41136829989, 53815.93749713153, 94415.80258796246, 105251.48126500622, 101273.02721417275, 89245.91115068331, -187034.56962520716, 0.0, 0.0, 0.0, 196.0, 0.0, 80.0, 0.0, 121.0, 41.0, 238.0, 0.0, 0.0, 0.0, 1.6558068685814748E9, 0.0, 2022-06-21 19:21:08.581
118.0, 95068.9876161799, 89607.87530039255, 94003.3905510176, 98976.54193360114, 80263.32619945124, 86412.6934305064, 85115.08525789801, 82982.25945022816, 111024.57922990076, 94809.21564212033, 50738.77283796941, 88123.76417204908, 105247.1450265819, 101107.40078775893, 88031.29500523747, -187447.2498830855, 0.0, 0.0, 0.0, 196.0, 17.5, 64.0, 0.0, 121.0, 41.0, 246.0, 0.0, 0.0, 0.0, 1.6558068685884516E9, 0.0, 2022-06-21 19:21:08.588
120.0, 94973.61272258911, 89493.50142401474, 98817.79984447955, 101258.07389713216, 80263.10268200669, 86378.62937195651, 86381.60215396907, 83593.95964073655, 111683.28513899865, 97455.88570307323, 52955.66355653567, 93647.5507792891, 105260.66783197735, 101258.0068418988, 89190.59058315642, -187139.421658447, 0.0, 0.0, 0.0, 196.0, 0.0, 0.0, 0.0, 121.0, 41.5, 126.0, 0.0, 0.0, 0.0, 1.655806868596481E9, 0.0, 2022-06-21 19:21:08.596
122.0, 95128.197387242, 89585.63531465952, 93536.97669946871, 98741.6027476314, 80265.36020819667, 86416.96261369737, 84924.8942643278, 82871.4618529632, 111122.63633282618, 95303.01038062696, 51645.113723887654, 89040.05158424993, 105238.62901194442, 101132.68061073788, 88120.47846561414, -187353.77488777338, 0.0, 0.0, 0.0, 196.0, 0.0, 0.0, 0.0, 121.0, 42.0, 6.0, 0.0, 0.0, 0.0, 1.655806868605522E9, 0.0, 2022-06-21 19:21:08.605
124.0, 94977.39016740206, 89520.05529642764, 99173.52785748577, 101459.12783850764, 80275.99963855739, 86412.6934305064, 86556.61631305412, 83719.04000270844, 111594.30284432207, 96951.7868103727, 52026.52389127301, 92699.41213123944, 105272.6036635165, 101251.23426332884, 89095.41685526572, -187168.45657449446, 0.0, 0.0, 0.0, 196.0, 0.0, 0.0, 0.0, 121.0, 42.0, 14.0, 0.0, 0.0, 0.0, 1.6558068686125436E9, 0.0, 2022-06-21 19:21:08.612
126.0, 95116.3509626807, 89542.7870205387, 93266.02885318147, 98596.0705394829, 80276.53608042432, 86417.67786951995, 84799.83625410036, 82801.25502362908, 111203.92962741014, 95848.43764882538, 52538.44589453291, 90065.16964020368, 105260.66783197735, 101147.58922428956, 88255.57240910202, -187311.0160006304, 0.0, 0.0, 0.0, 196.0, 0.0, 80.0, 0.0, 121.0, 42.0, 22.0, 0.0, 0.0, 0.0, 1.6558068686205528E9, 0.0, 2022-06-21 19:21:08.620
128.0, 94952.62443454558, 89554.34287242209, 99361.88600801064, 101564.44925838105, 80266.07546401925, 86406.12201763655, 86646.22445657545, 83779.23325052658, 111479.19136037724, 96382.3537686293, 51095.283162031556, 91630.79758057566, 105270.92728268234, 101240.5948329681, 88964.54739147991, -187196.3962550636, 0.0, 0.0, 0.0, 196.0, 17.5, 64.0, 0.0, 121.0, 42.0, 30.0, 0.0, 0.0, 0.0, 1.655806868629501E9, 0.0, 2022-06-21 19:21:08.629
130.0, 95113.57934636823, 89510.55580503415, 93211.78116938844, 98549.13187612676, 80268.02006578686, 86398.5894797551, 84719.86171243928, 82737.64195890927, 111319.46579449961, 96418.98827779153, 53431.375733777975, 91164.83076391587, 105236.1926717988, 101165.69413729837, 88399.45058816083, -187245.704203332, 0.0, 0.0, 0.0, 196.0, 0.0, 0.0, 0.0, 121.0, 42.0, 38.0, 0.0, 0.0, 0.0, 1.6558068686374924E9, 0.0, 2022-06-21 19:21:08.637
132.0, 94943.88490246356, 89573.87829707602, 99346.5974148032, 101560.80592403484, 80248.46228938845, 86398.70123847738, 86670.40904407609, 83790.5208814765, 111327.49007075907, 95799.86730812398, 50273.27540794318, 90521.1675788364, 105267.21689310276, 101217.14785303449, 88793.84711907472, -187217.3398396182, 0.0, 0.0, 0.0, 196.0, 0.0, 0.0, 0.0, 121.0, 42.0, 46.0, 0.0, 0.0, 0.0, 1.6558068686445181E9, 0.0, 2022-06-21 19:21:08.644
134.0, 95156.53939921134, 89503.96204041982, 93361.67196770573, 98610.68858035667, 80272.6468768891, 86390.56520349566, 84722.11923862925, 82718.84414182237, 111438.66764767977, 96983.68274971042, 54260.51369434759, 92238.47445708209, 105232.39287524139, 101173.27137866872, 88550.48132544533, -187180.34770254468, 0.0, 0.0, 0.0, 196.0, 0.0, 0.0, 0.0, 121.0, 42.0, 54.0, 0.0, 0.0, 0.0, 1.6558068686545458E9, 0.0, 2022-06-21 19:21:08.654
136.0, 94956.33482412515, 89592.05026531819, 99123.83992956161, 101468.82849560125, 80267.30480996428, 86406.32318333664, 86669.60438127571, 83807.3293933069, 111251.65060182221, 95255.51292365944, 49551.00113761439, 89429.86600755049, 105275.7999629736, 101203.89326857249, 88630.38881187307, -187284.75270089542, 0.0, 0.0, 0.0, 196.0, 0.0, 80.0, 0.0, 121.0, 42.0, 62.0, 0.0, 0.0, 0.0, 1.6558068686615727E9, 0.0, 2022-06-21 19:21:08.661
138.0, 95122.47534066145, 89458.99033057575, 93724.32902149309, 98777.63375969336, 80289.54479569731, 86403.95389842438, 84799.1209982778, 82761.3348080319, 111558.60710842695, 97497.0576163599, 54918.0126092449, 93239.29616681293, 105247.23443355972, 101203.7368063613, 88726.03192639732, -187125.5635768847, 0.0, 0.0, 0.0, 196.0, 17.5, 88.0, 0.0, 121.0, 42.0, 70.0, 0.0, 0.0, 0.0, 1.655806868668573E9, 0.0, 2022-06-21 19:21:08.668
140.0, 94943.90725420801, 89601.63916368951, 98721.1509014548, 101284.65012128951, 80259.90638254957, 86424.02576494524, 86573.71539756244, 83772.3265614899, 111095.70248075754, 94777.27499929369, 48987.06662500699, 88475.17829837541, 105286.95348345679, 101187.10710848655, 88470.70794948435, -187383.5697631323, 0.0, 0.0, 0.0, 196.0, 0.0, 0.0, 0.0, 121.0, 42.0, 78.0, 0.0, 0.0, 0.0, 1.6558068686766405E9, 0.0, 2022-06-21 19:21:08.676
142.0, 95109.84660504421, 89455.8163828631, 94255.8982081292, 99021.13366378947, 80275.30673447928, 86390.56520349566, 84922.54733115999, 82815.04604995801, 111642.98494374573, 97925.60761280151, 55378.257379324124, 94107.0132383124, 105235.41036074286, 101225.12742580503, 88880.86246023924, -187020.39861922248, 0.0, 0.0, 0.0, 196.0, 0.0, 0.0, 0.0, 121.0, 42.0, 86.0, 0.0, 0.0, 0.0, 1.655806868684657E9, 0.0, 2022-06-21 19:21:08.684
144.0, 94982.17344071549, 89637.7595827293, 98132.47300773537, 101008.91900168885, 80251.189202212, 86415.01801192976, 86411.50878805027, 83694.67660125215, 111009.02241575986, 94380.73270091209, 48642.17920806161, 87671.09664334019, 105279.57740778655, 101160.44147735137, 88309.48481672822, -187500.02235174447, 0.0, 0.0, 0.0, 196.0, 0.0, 0.0, 0.0, 121.0, 42.0, 94.0, 0.0, 0.0, 0.0, 1.6558068686936824E9, 0.0, 2022-06-21 19:21:08.693
146.0, 95115.81452081377, 89431.05065000661, 94923.74598070933, 99342.48469382343, 80287.37667648515, 86394.49911051978, 85099.4837402682, 82912.5220075276, 111728.50271803174, 98233.90522407356, 55610.49200421477, 94742.5627401546, 105234.80686364256, 101229.53071946272, 89021.14200844074, -186960.65240629346, 0.0, 0.0, 0.0, 196.0, 0.0, 88.0, 0.0, 121.0, 42.0, 102.0, 0.0, 0.0, 0.0, 1.6558068687006614E9, 0.0, 2022-06-21 19:21:08.700
148.0, 94969.58940858716, 89614.89374815152, 97426.94019400362, 100674.35809068181, 80261.06867326125, 86430.3513086261, 86229.43147771734, 83605.04610598637, 110951.33256332071, 94124.24643328744, 48522.17269208106, 87113.21945348018, 105281.14202989842, 101148.05861092314, 88181.99046635514, -187500.02235174447, 0.0, 0.0, 0.0, 196.0, 17.5, 72.0, 0.0, 121.0, 42.0, 110.0, 0.0, 0.0, 0.0, 1.655806868708682E9, 0.0, 2022-06-21 19:21:08.708
150.0, 95086.2431628994, 89436.43742042035, 95680.24077179919, 99707.60043950086, 80288.82953987474, 86389.15704359497, 85335.16053380497, 83031.83561943003, 111773.11679996453, 98416.02723789541, 55600.299608743146, 95157.23230328945, 105251.19069232831, 101267.17105712547, 89144.16600992274, -186929.78464720066, 0.0, 0.0, 0.0, 196.0, 0.0, 0.0, 0.0, 121.0, 42.0, 118.0, 0.0, 0.0, 0.0, 1.6558068687167144E9, 0.0, 2022-06-21 19:21:08.716
152.0, 94996.67972286699, 89628.77418145827, 96634.01205945159, 100291.94209479596, 80271.26106873287, 86431.55830282668, 86001.93542265122, 83481.9997527599, 110879.58346361917, 94001.91533588355, 48641.5310074724, 86830.06755472036, 105282.52783805465, 101143.85648296554, 88081.42996805072, -187500.02235174447, 0.0, 0.0, 0.0, 196.0, 0.0, 0.0, 0.0, 121.0, 42.0, 126.0, 0.0, 0.0, 0.0, 1.6558068687249277E9, 0.0, 2022-06-21 19:21:08.724
154.0, 95058.66111024155, 89405.4579026053, 96477.95217966464, 100093.45860403283, 80283.82274911675, 86391.01223838476, 85566.74695810639, 83145.85186789655, 111796.16144849795, 98449.04076445589, 55358.49843722564, 95299.85878465878, 105243.65815444686, 101272.06608916118, 89228.1638655858, -186926.61069948802, 0.0, 0.0, 0.0, 196.0, 0.0, 0.0, 0.0, 121.0, 42.0, 134.0, 0.0, 0.0, 0.0, 1.655806868732794E9, 0.0, 2022-06-21 19:21:08.732
156.0, 95013.24236550837, 89629.02005064728, 95826.33177355907, 99894.17045046932, 80267.5506791533, 86423.77989575623, 85739.48123925702, 83344.6706348265, 110864.04900122274, 94060.07457495625, 49028.059724338025, 86855.32502595485, 105279.13037289745, 101117.95081114184, 88010.1726067272, -187500.02235174447, 0.0, 0.0, 0.0, 196.0, 0.0, 104.0, 0.0, 121.0, 42.0, 142.0, 0.0, 0.0, 0.0, 1.65580686874078E9, 0.0, 2022-06-21 19:21:08.740
158.0, 95027.41337149304, 89439.0078710327, 97263.75010773541, 100480.63552148767, 80284.18037702804, 86387.25714531627, 85816.84062681683, 83290.62411673357, 111791.95932054035, 98347.27327195088, 54930.239013461956, 95169.50341099541, 105245.73686668121, 101263.77359196826, 89269.96162771722, -186930.41049604543, 0.0, 0.0, 0.0, 196.0, 17.0, 192.0, 0.0, 121.0, 42.0, 150.0, 0.0, 0.0, 0.0, 1.6558068687497854E9, 0.0, 2022-06-21 19:21:08.749
160.0, 95030.20733954995, 89640.0618124082, 95032.64367969557, 99505.00422775796, 80269.62939138763, 86411.95582293939, 85476.15533782904, 83194.77983650922, 110885.28315845528, 94264.97301637805, 49619.911565770104, 87150.72568067619, 105265.7416779687, 101119.29191580915, 87992.62648732979, -187500.02235174447, 0.0, 0.0, 0.0, 196.0, 0.0, 0.0, 0.0, 121.0, 42.0, 158.0, 0.0, 0.0, 0.0, 1.6558068687567413E9, 0.0, 2022-06-21 19:21:08.756
162.0, 95009.50962418433, 89446.11572576949, 97989.06421531014, 100840.4539037292, 80280.51469093737, 86388.10651160557, 86074.8691648089, 83441.3419295957, 111744.39480833946, 98087.54600138021, 54285.2123719707, 94739.74642035323, 105253.06823886256, 101265.36056582458, 89278.49999409914, -186997.51043290025, 0.0, 0.0, 0.0, 196.0, 0.0, 0.0, 0.0, 121.0, 42.0, 166.0, 0.0, 0.0, 0.0, 1.6558068687648172E9, 0.0, 2022-06-21 19:21:08.764
164.0, 95078.48710757341, 89571.3972534415, 94333.27994743348, 99156.18290378845, 80278.39127521412, 86424.94218646792, 85242.93723618236, 83058.30008486511, 110936.1333770911, 94590.01208424712, 50402.28967693922, 87724.71847828847, 105255.90691040838, 101121.86236642151, 88017.25810971954, -187472.82027874235, 0.0, 0.0, 0.0, 196.0, 0.0, 0.0, 0.0, 121.0, 42.0, 174.0, 0.0, 0.0, 0.0, 1.65580686877291E9, 0.0, 2022-06-21 19:21:08.772
166.0, 94962.74977478384, 89464.4665079673, 98591.51078361402, 101153.9818232038, 80279.75473162589, 86402.07635189014, 86289.58002204658, 83566.93638169007, 111671.4610661818, 97729.04637206154, 53510.38915042748, 94083.52155488987, 105271.597835016, 101272.37901358354, 89241.97724365917, -187071.38294832504, 0.0, 0.0, 0.0, 196.0, 0.0, 96.0, 0.0, 121.0, 42.0, 182.0, 0.0, 0.0, 0.0, 1.6558068687808113E9, 0.0, 2022-06-21 19:21:08.780
168.0, 95066.37246207864, 89592.31848625165, 93772.47467904982, 98875.84732482999, 80276.91606008007, 86415.5991572856, 85015.12825669388, 82936.63953979488, 111006.38490991414, 95049.34043280368, 51275.46057408579, 88537.33849970561, 105256.66686971985, 101134.28993633867, 88084.96154367465, -187397.15962376114, 0.0, 0.0, 0.0, 196.0, 17.0, 200.0, 0.0, 121.0, 42.0, 190.0, 0.0, 0.0, 0.0, 1.655806868788818E9, 0.0, 2022-06-21 19:21:08.788
170.0, 94954.34551886863, 89519.74237200528, 99046.88287340199, 101384.69652947146, 80278.32421998074, 86404.33387808013, 86485.7612831308, 83673.37538878625, 111583.59635872798, 97249.71321221748, 52616.788758848765, 93212.49642521101, 105273.60949201697, 101260.97962391135, 89160.81805954195, -187131.84441707665, 0.0, 0.0, 0.0, 196.0, 0.0, 0.0, 0.0, 121.0, 42.0, 198.0, 0.0, 0.0, 0.0, 1.655806868796815E9, 0.0, 2022-06-21 19:21:08.796
172.0, 95079.26941862935, 89555.70632883387, 93383.30845633846, 98670.09951711888, 80278.57008916976, 86411.88876770601, 84870.60187704586, 82840.77290782606, 111094.18256213458, 95572.97475015817, 52205.85193703794, 89507.91829918842, 105245.6921631923, 101129.35020081403, 88188.98656236965, -187313.49704426492, 0.0, 0.0, 0.0, 196.0, 0.0, 0.0, 0.0, 121.0, 42.0, 206.0, 0.0, 0.0, 0.0, 1.6558068688048687E9, 0.0, 2022-06-21 19:21:08.804
174.0, 94968.1141934531, 89518.89300571597, 99318.76949295634, 101532.08393240976, 80267.12599600865, 86407.4407705594, 86601.36450545365, 83755.85332582633, 111482.87939821238, 96686.44925194375, 51672.53931433432, 92186.03726458995, 105267.08278263603, 101245.0428301147, 89037.92816852668, -187159.20295228995, 0.0, 0.0, 0.0, 196.0, 0.0, 0.0, 0.0, 121.0, 42.0, 214.0, 0.0, 0.0, 0.0, 1.6558068688128927E9, 0.0, 2022-06-21 19:21:08.812
176.0, 95090.51234609037, 89545.98331999581, 93215.82683513485, 98574.90343748372, 80271.84221408871, 86419.30954686517, 84761.52536410396, 82779.30561057397, 111208.35527281229, 96144.08417273572, 53120.4406166602, 90601.87972806451, 105238.7407706667, 101152.01486969172, 88323.02997386814, -187259.7634505944, 0.0, 0.0, 0.0, 196.0, 0.0, 88.0, 0.0, 121.0, 42.0, 222.0, 0.0, 0.0, 0.0, 1.6558068688209465E9, 0.0, 2022-06-21 19:21:08.820
178.0, 94927.38931505554, 89587.17758502693, 99403.92963933107, 101587.31509295883, 80272.06573153326, 86404.53504378021, 86679.0591691803, 83813.81139919894, 111362.26938513153, 96118.46907358993, 50777.84368727728, 91103.09524573032, 105276.62697751845, 101238.15849282248, 88899.34735290377, -187209.13674940311, 0.0, 0.0, 0.0, 196.0, 17.5, 64.0, 0.0, 121.0, 42.0, 230.0, 0.0, 0.0, 0.0, 1.6558068688289022E9, 0.0, 2022-06-21 19:21:08.828
180.0, 95102.2470119294, 89490.14866234644, 93244.97350990456, 98566.8121059909, 80277.16192926907, 86410.86058746107, 84713.51381701397, 82740.79355487747, 111322.14800383426, 96723.30727855055, 53960.240359334995, 91691.52727026073, 105246.20625331477, 101170.4774106118, 88478.9333914439, -187223.50892108787, 0.0, 0.0, 0.0, 196.0, 0.0, 0.0, 0.0, 121.0, 42.0, 238.0, 0.0, 0.0, 0.0, 1.6558068688358989E9, 0.0, 2022-06-21 19:21:08.835
182.0, 94925.53412026574, 89600.40981774448, 99280.27978900431, 101536.59898478973, 80268.37769369813, 86426.66327079097, 86692.80549202031, 83840.09705067838, 111214.56905777086, 95528.96416532567, 49935.02645910102, 89968.00660705646, 105283.04192817712, 101209.8388325976, 88733.83268521223, -187278.82948861475, 0.0, 0.0, 0.0, 196.0, 0.0, 0.0, 0.0, 121.0, 42.0, 246.0, 0.0, 0.0, 0.0, 1.6558068688449008E9, 0.0, 2022-06-21 19:21:08.844
184.0, 95098.58132583874, 89489.23224082378, 93501.95151590723, 98678.9955114121, 80280.22411825944, 86409.72064849385, 84760.22896292555, 82752.32705501642, 111435.51605171157, 97258.78802046634, 54673.931559792945, 92748.22834112983, 105238.2937357776, 101196.65130336897, 88650.99712026086, -187191.70238872795, 0.0, 0.0, 0.0, 196.0, 0.0, 0.0, 0.0, 121.0, 42.5, 126.0, 0.0, 0.0, 0.0, 1.6558068688529458E9, 0.0, 2022-06-21 19:21:08.852
186.0, 94924.59534699863, 89637.62547226256, 98958.14644791442, 101388.96571266244, 80251.435071401, 86424.56220681217, 86628.99126160041, 83810.52569276401, 111101.26806512692, 95002.33471421417, 49259.78025910619, 88928.24815848448, 105280.2479601202, 101186.77183231972, 88557.43271797094, -187343.6718992796, 0.0, 0.0, 0.0, 196.0, 0.0, 104.0, 0.0, 121.0, 43.0, 6.0, 0.0, 0.0, 0.0, 1.6558068688611405E9, 0.0, 2022-06-21 19:21:08.861
188.0, 95087.91954373354, 89463.4606794668, 93951.69096609247, 98878.46247893125, 80267.57303089775, 86400.53408152272, 84842.81865868792, 82788.9392124342, 111553.06387580204, 97736.08717156497, 55240.92826139072, 93692.54484087764, 105233.71162816425, 101206.10609127357, 88802.4078372011, -187110.05146623272, 0.0, 0.0, 0.0, 196.0, 17.5, 56.0, 0.0, 121.0, 43.0, 14.0, 0.0, 0.0, 0.0, 1.6558068688680203E9, 0.0, 2022-06-21 19:21:08.868
190.0, 94924.3494778096, 89615.40783827398, 98454.56164533635, 101147.00807893374, 80247.09883297668, 86412.98400318432, 86504.44734149544, 83743.96219777611, 110961.1896826255, 94545.5097610366, 48802.530622783976, 88039.31928149692, 105276.850494963, 101169.29276815568, 88387.53710836614, -187463.9913396825, 0.0, 0.0, 0.0, 196.0, 0.0, 0.0, 0.0, 121.0, 43.0, 22.0, 0.0, 0.0, 0.0, 1.6558068688769655E9, 0.0, 2022-06-21 19:21:08.876
192.0, 95076.69896801698, 89454.45292645133, 94555.67980476377, 99161.65908118, 80293.21048178799, 86414.25805261827, 85024.96302425422, 82879.77670190057, 111631.40674011789, 98096.97843754035, 55584.38516669097, 94467.5468763765, 105239.47837823372, 101223.07106531515, 88954.6455686862, -187046.43840151292, 0.0, 0.0, 0.0, 196.0, 0.0, 0.0, 0.0, 121.0, 43.0, 30.0, 0.0, 0.0, 0.0, 1.6558068688849964E9, 0.0, 2022-06-21 19:21:08.884
194.0, 94941.82854197366, 89670.39312963405, 97804.90819274285, 100841.12445606285, 80256.79949007029, 86426.77502951324, 86338.7315081038, 83666.87103114976, 110894.91676031552, 94217.52026289943, 48553.88981746314, 87377.5288316642, 105285.23239913373, 101152.9312912144, 88247.90576075384, -187500.02235174447, 0.0, 0.0, 0.0, 196.0, 0.0, 0.0, 0.0, 121.0, 43.0, 38.0, 0.0, 0.0, 0.0, 1.6558068688919983E9, 0.0, 2022-06-21 19:21:08.891
196.0, 95059.19755210848, 89449.96022581581, 95273.8860576017, 99500.22095444454, 80274.34560946771, 86385.62546797103, 85216.60688121401, 82965.74151107568, 111679.97708081927, 98333.9069287666, 55700.01074075828, 95019.67966791149, 105228.10134030598, 101226.08855081661, 89081.4246632367, -186981.81950829262, 0.0, 0.0, 0.0, 196.0, 0.0, 96.0, 0.0, 121.0, 43.0, 46.0, 0.0, 0.0, 0.0, 1.6558068689000154E9, 0.0, 2022-06-21 19:21:08.900
198.0, 94944.19782688592, 89653.02582419227, 97052.14614297703, 100476.20987608552, 80249.84809754469, 86414.90625320747, 86113.38122050538, 83547.95975064753, 110830.54373628423, 94021.92014717104, 48554.85094247472, 86943.59206480886, 105269.0497361481, 101132.39003805997, 88113.97410797764, -187500.02235174447, 0.0, 0.0, 0.0, 196.0, 17.5, 64.0, 0.0, 121.0, 43.0, 54.0, 0.0, 0.0, 0.0, 1.6558068689090073E9, 0.0, 2022-06-21 19:21:08.909
200.0, 95042.05376411126, 89436.19155123134, 96060.4215932395, 99883.79924104206, 80279.33004848124, 86400.60113675609, 85448.12625028209, 83100.58958537455, 111745.82531998461, 98485.98819804052, 55632.19554808087, 95318.36602906777, 105234.2927735201, 101248.3508882941, 89181.8510510744, -186934.90319668094, 0.0, 0.0, 0.0, 196.0, 0.0, 0.0, 0.0, 121.0, 43.0, 61.0, 0.0, 0.0, 0.0, 1.655806868916054E9, 0.0, 2022-06-21 19:21:08.916
202.0, 94990.8682693086, 89657.07148993868, 96228.93139468806, 100082.93093239439, 80258.92290579354, 86428.87609349204, 85880.7219124701, 83420.57715899672, 110789.52828520874, 93991.81234738974, 48821.060218937426, 86814.4436853461, 105283.53366655513, 101126.93621241287, 88042.58263618739, -187500.02235174447, 0.0, 0.0, 0.0, 196.0, 0.0, 0.0, 0.0, 121.0, 43.0, 69.0, 0.0, 0.0, 0.0, 1.6558068689241693E9, 0.0, 2022-06-21 19:21:08.924
204.0, 95025.04408658078, 89461.69489165484, 96869.62179775498, 100273.65836783152, 80271.37282745515, 86388.19591858338, 85701.50562542744, 83224.79822931268, 111727.38513080898, 98431.74051424749, 55284.33534912293, 95337.92380546615, 105234.71745666474, 101257.09042037612, 89250.38149957437, -186935.28317633667, 0.0, 0.0, 0.0, 196.0, 0.0, 0.0, 0.0, 121.0, 43.0, 77.0, 0.0, 0.0, 0.0, 1.6558068689330847E9, 0.0, 2022-06-21 19:21:08.933
206.0, 94988.25311520734, 89629.48943728083, 95420.66996343971, 99688.44499450267, 80253.93846678, 86405.22794785834, 85609.81876967178, 83270.06051183469, 110796.03264284524, 94117.02681982837, 49333.42925708643, 86990.1283967648, 105266.09930588, 101110.2618110492, 87994.8169582864, -187500.02235174447, 0.0, 0.0, 0.0, 196.0, 0.0, 112.0, 0.0, 121.0, 43.0, 85.0, 0.0, 0.0, 0.0, 1.6558068689410872E9, 0.0, 2022-06-21 19:21:08.941
208.0, 94980.74292907036, 89472.89311562695, 97634.63260348233, 100655.09088696133, 80269.96466755446, 86403.5962705131, 85942.56918937793, 83374.3761032076, 111721.12664236149, 98258.6933086745, 54740.22683384739, 95071.31219760326, 105240.50655847866, 101262.76776346777, 89273.85083125244, -186946.95078694235, 0.0, 0.0, 0.0, 196.0, 17.0, 176.0, 0.0, 121.0, 43.0, 93.0, 0.0, 0.0, 0.0, 1.6558068689480777E9, 0.0, 2022-06-21 19:21:08.948
210.0, 95042.34433678917, 89636.64199550654, 94660.95652114827, 99322.36812381365, 80270.14348151011, 86438.21912267436, 85363.77076670776, 83134.3183677576, 110841.85371897861, 94403.03974187849, 50030.26724222508, 87455.71523376886, 105276.51521879616, 101130.02075314769, 87998.99673449955, -187500.02235174447, 0.0, 0.0, 0.0, 196.0, 0.0, 0.0, 0.0, 121.0, 43.0, 101.0, 0.0, 0.0, 0.0, 1.6558068689571722E9, 0.0, 2022-06-21 19:21:08.957
212.0, 94975.19969644543, 89491.19919433584, 98311.21990814447, 100989.45063226827, 80261.94039129501, 86398.09774137709, 86178.35774163697, 83503.92681407057, 111664.77789458966, 97945.47831362228, 53995.73492953002, 94538.35720281092, 105252.95648014027, 101263.23715010133, 89265.93831371526, -187048.8076864252, 0.0, 0.0, 0.0, 196.0, 0.0, 0.0, 0.0, 121.0, 43.0, 109.0, 0.0, 0.0, 0.0, 1.655806868965129E9, 0.0, 2022-06-21 19:21:08.965
214.0, 95050.83799968219, 89578.57216341165, 94026.70342048448, 99001.68764611337, 80262.3427226952, 86430.01603245927, 85121.90253995688, 83004.70060166129, 110912.5299349463, 94794.55289775765, 50867.96592092108, 88159.4599079442, 105259.46083777677, 101125.79627344565, 88042.15795304274, -187446.75814470748, 0.0, 0.0, 0.0, 196.0, 0.0, 0.0, 0.0, 121.0, 43.0, 117.0, 0.0, 0.0, 0.0, 1.655806868972339E9, 0.0, 2022-06-21 19:21:08.972
216.0, 94939.59336752813, 89504.11850263101, 98854.81433329753, 101262.4548390454, 80263.5497168958, 86397.18131985443, 86390.36403779556, 83624.80504808486, 111583.50695175015, 97513.6649624902, 53151.800114130994, 93776.92267619642, 105253.71643945176, 101256.97866165385, 89200.5594611835, -187135.30893746723, 0.0, 0.0, 0.0, 196.0, 0.0, 104.0, 0.0, 121.0, 43.0, 125.0, 0.0, 0.0, 0.0, 1.6558068689802325E9, 0.0, 2022-06-21 19:21:08.980
218.0, 95079.87291572963, 89585.99294257081, 93535.23326340118, 98749.53761691305, 80278.7489031254, 86429.65840454798, 84951.8504681409, 82885.38698975886, 110984.48020034793, 95283.20673503957, 51787.382577345685, 89051.65213962224, 105254.99048888571, 101130.24427059226, 88134.24714019861, -187365.35309140125, 0.0, 0.0, 0.0, 196.0, 17.0, 184.0, 0.0, 121.0, 43.0, 133.0, 0.0, 0.0, 0.0, 1.6558068689892106E9, 0.0, 2022-06-21 19:21:08.989
220.0, 94932.82078895817, 89518.89300571597, 99220.75709351983, 101446.02971625683, 80256.37480692564, 86398.67888673293, 86539.94191169048, 83720.24699690903, 111486.88036046986, 96986.3873107895, 52194.69841655474, 92798.56446964318, 105266.41223030236, 101243.03117311373, 89102.36824779132, -187165.3720337596, 0.0, 0.0, 0.0, 196.0, 0.0, 0.0, 0.0, 121.0, 43.0, 141.0, 0.0, 0.0, 0.0, 1.6558068689962332E9, 0.0, 2022-06-21 19:21:08.996
222.0, 95066.39481382309, 89560.57900912513, 93248.0133471505, 98596.96460926112, 80275.86552809067, 86423.71284052287, 84810.31922224989, 82798.72927650563, 111091.45564931103, 95848.9740906923, 52709.414387871555, 90077.08311999835, 105237.51142472166, 101145.3764015885, 88251.23617067769, -187306.76916918388, 0.0, 0.0, 0.0, 196.0, 0.0, 0.0, 0.0, 121.0, 43.0, 149.0, 0.0, 0.0, 0.0, 1.6558068690042307E9, 0.0, 2022-06-21 19:21:09.004
224.0, 94907.47391074586, 89543.21170368335, 99410.32223824528, 101559.33070890079, 80248.17171671054, 86403.08218039063, 86641.44118326202, 83790.85615764334, 111358.80486474096, 96418.1612632467, 51237.529663745125, 91712.96259319337, 105272.13427688292, 101238.87374864504, 88976.70674046359, -187200.4866242989, 0.0, 0.0, 0.0, 196.0, 0.0, 0.0, 0.0, 121.0, 43.0, 157.0, 0.0, 0.0, 0.0, 1.6558068690122092E9, 0.0, 2022-06-21 19:21:09.012
226.0, 95121.38010518314, 89525.21854939683, 93178.5441253834, 98549.48950403804, 80280.73820838192, 86416.29206136371, 84739.08421267083, 82762.54180223249, 111202.61087448728, 96420.17292024767, 53603.9535527174, 91173.95027565364, 105236.01385784315, 101162.05080295216, 88394.108521236, -187244.1395812201, 0.0, 0.0, 0.0, 196.0, 0.0, 120.0, 0.0, 121.0, 43.0, 165.0, 0.0, 0.0, 0.0, 1.655806869021341E9, 0.0, 2022-06-21 19:21:09.021
228.0, 94910.69256194742, 89562.05422425918, 99395.2124589935, 101561.76704904641, 80255.61484761415, 86404.87031994705, 86692.44786410902, 83827.51301855005, 111248.27548840946, 95814.57475597558, 50357.27326360623, 90582.83604178859, 105284.20421888879, 101221.50644320327, 88821.13859905466, -187223.30775538777, 0.0, 0.0, 0.0, 196.0, 17.5, 72.0, 0.0, 121.0, 43.0, 173.0, 0.0, 0.0, 0.0, 1.6558068690282238E9, 0.0, 2022-06-21 19:21:09.028
230.0, 95090.42293911254, 89506.68895324337, 93333.70993539214, 98604.60890586484, 80280.11235953718, 86411.50878805027, 84736.67022426966, 82743.40870897875, 111332.34039930587, 96992.06465388116, 54411.92441128784, 92259.59685559236, 105228.41426472834, 101166.61055882103, 88553.94584583591, -187182.6275804791, 0.0, 0.0, 0.0, 196.0, 0.0, 0.0, 0.0, 121.0, 43.0, 181.0, 0.0, 0.0, 0.0, 1.6558068690362787E9, 0.0, 2022-06-21 19:21:09.036
232.0, 94917.44278877293, 89609.1493498265, 99171.67266269597, 101474.66230090408, 80254.36314992465, 86410.05592466069, 86668.66560800858, 83828.45179181716, 111116.71312054552, 95260.31854871733, 49599.280905637854, 89483.91252564342, 105288.07107067957, 101197.70183535837, 88655.13219298508, -187310.72542795248, 0.0, 0.0, 0.0, 196.0, 0.0, 0.0, 0.0, 121.0, 43.0, 189.0, 0.0, 0.0, 0.0, 1.6558068690443122E9, 0.0, 2022-06-21 19:21:09.044
234.0, 95110.49480563341, 89482.54906923164, 93676.00454998072, 98756.77958211656, 80282.57105142725, 86391.36986629604, 84794.53889066445, 82759.21139230864, 111435.44899647821, 97505.12659610828, 55040.70133456008, 93256.61876876578, 105247.52500623763, 101194.86316381255, 88719.75108620538, -187166.40021400456, 0.0, 0.0, 0.0, 196.0, 0.0, 0.0, 0.0, 121.0, 43.0, 197.0, 0.0, 0.0, 0.0, 1.6558068690522635E9, 0.0, 2022-06-21 19:21:09.052
236.0, 94929.8033034567, 89632.9539576714, 98756.95839607221, 101281.56558055468, 80238.60517008367, 86421.16474165497, 86567.00987422584, 83776.26046851402, 110998.11476446567, 94745.7143361228, 48996.45435767822, 88489.21519389334, 105278.03513741912, 101184.87193404102, 88473.6807314969, -187393.2927719704, 0.0, 0.0, 0.0, 196.0, 0.0, 96.0, 0.0, 121.0, 43.0, 205.0, 0.0, 0.0, 0.0, 1.6558068690602832E9, 0.0, 2022-06-21 19:21:09.060
238.0, 95057.6329299966, 89455.23523750725, 94211.59705061877, 99003.05110252513, 80273.80916760078, 86400.2882123337, 84909.15863623127, 82801.00915444006, 111528.81223306802, 97926.72520002427, 55499.135613338425, 94124.11232282071, 105224.94974433778, 101208.52007967474, 88869.99951243395, -187044.56085497868, 0.0, 0.0, 0.0, 196.0, 17.0, 192.0, 0.0, 121.0, 43.0, 213.0, 0.0, 0.0, 0.0, 1.6558068690683987E9, 0.0, 2022-06-21 19:21:09.068
240.0, 94928.23868134484, 89628.32714656915, 98176.72946175688, 101014.10460640247, 80252.39619641259, 86419.62247128756, 86438.91202675248, 83715.17315091768, 110885.3725654331, 94357.28572097847, 48621.77206537391, 87688.5980592487, 105290.44035559183, 101156.9769569608, 88319.02901161063, -187500.02235174447, 0.0, 0.0, 0.0, 196.0, 0.0, 0.0, 0.0, 121.0, 43.0, 221.0, 0.0, 0.0, 0.0, 1.6558068690773287E9, 0.0, 2022-06-21 19:21:09.077
242.0, 95076.20722963897, 89439.85723732201, 94884.38455872353, 99321.42935054653, 80288.58367068574, 86398.23185184383, 85119.26503411116, 82923.60847277743, 111622.66720803585, 98235.35808746316, 55711.253668219295, 94787.53444999868, 105241.17711081232, 101225.1944810384, 89025.2100259316, -187000.03618002372, 0.0, 0.0, 0.0, 196.0, 0.0, 0.0, 0.0, 121.0, 43.0, 229.0, 0.0, 0.0, 0.0, 1.6558068690843427E9, 0.0, 2022-06-21 19:21:09.084
244.0, 94937.06762040468, 89645.69445201092, 97464.71464213308, 100672.30173019192, 80255.9948272699, 86416.49322706381, 86239.73563191124, 83616.44549565858, 110822.47475653587, 94078.58181936525, 48483.63828464011, 87114.78407559206, 105286.12646891196, 101141.62130852, 88183.4656814892, -187500.02235174447, 0.0, 0.0, 0.0, 196.0, 0.0, 0.0, 0.0, 121.0, 43.0, 237.0, 0.0, 0.0, 0.0, 1.6558068690923846E9, 0.0, 2022-06-21 19:21:09.092
246.0, 95013.68940039747, 89413.70569630929, 95643.4721521702, 99680.73364266558, 80275.86552809067, 86395.66140123147, 85327.38212673452, 83032.90850316388, 111661.38042943245, 98420.09525538627, 55707.16329898397, 95191.87750719518, 105226.69318040529, 101238.11378933357, 89130.8890737163, -186936.57957751508, 0.0, 0.0, 0.0, 196.0, 0.0, 96.0, 0.0, 121.0, 43.0, 245.0, 0.0, 0.0, 0.0, 1.655806869100376E9, 0.0, 2022-06-21 19:21:09.100
248.0, 94943.92960595246, 89634.89855943901, 96668.18787672376, 100293.10438550764, 80241.46619337394, 86418.1025526646, 85987.60795445538, 83485.84425280623, 110752.22322371283, 93965.57139939921, 48612.40668444714, 86810.59918529978, 105272.02251816065, 101140.39196257495, 88074.61268599186, -187500.02235174447, 0.0, 0.0, 0.0, 196.0, 17.5, 72.0, 0.0, 121.0, 43.0, 253.0, 0.0, 0.0, 0.0, 1.6558068691083572E9, 0.0, 2022-06-21 19:21:09.108
250.0, 95034.56592971874, 89436.14684774242, 96441.49648445804, 100069.05049908764, 80275.21732750146, 86387.25714531627, 85562.47777491543, 83163.75561520524, 111686.88376985595, 98462.25064542898, 55478.61671192846, 95325.92091869366, 105227.90017460588, 101247.7473911938, 89211.3553537554, -186917.5135394947, 0.0, 0.0, 0.0, 196.0, 0.0, 0.0, 0.0, 121.0, 44.0, 5.0, 0.0, 0.0, 0.0, 1.6558068691164484E9, 0.0, 2022-06-21 19:21:09.116
252.0, 94998.89254556806, 89648.86839972358, 95846.2695296132, 99888.26958993312, 80250.47394638944, 86413.40868632897, 85758.10024238829, 83352.35963491914, 110763.98024129633, 94006.85507140816, 48972.269770177576, 86784.44764428708, 105270.90493093789, 101115.08978785155, 88014.777066085, -187500.02235174447, 0.0, 0.0, 0.0, 196.0, 0.0, 0.0, 0.0, 121.0, 44.0, 13.0, 0.0, 0.0, 0.0, 1.6558068691244109E9, 0.0, 2022-06-21 19:21:09.124
254.0, 94977.14429821305, 89444.72991761327, 97236.72684868895, 100447.46553271599, 80267.19305124201, 86387.86064241656, 85823.09911526431, 83298.35782031511, 111682.860455854, 98352.59298713124, 55022.082331428806, 95173.79494593084, 105231.00706708516, 101249.26730981676, 89260.819764235, -186919.9722313848, 0.0, 0.0, 0.0, 196.0, 0.0, 0.0, 0.0, 121.0, 44.0, 21.0, 0.0, 0.0, 0.0, 1.6558068691324394E9, 0.0, 2022-06-21 19:21:09.132
0.0, 94986.2191064619, 89627.16485585748, 95036.4881797419, 99496.0858817203, 80247.1882399545, 86416.0461921747, 85482.54793674326, 83201.15008367898, 110761.83447382863, 94194.09563471028, 49565.038033132325, 87073.18747916073, 105261.51719826665, 101112.04995060564, 87983.8199000144, -187500.02235174447, 0.0, 0.0, 0.0, 196.0, 0.0, 0.0, 0.0, 121.0, 44.0, 29.0, 0.0, 0.0, 0.0, 1.6558068691394262E9, 0.0, 2022-06-21 19:21:09.139
2.0, 94959.665234049, 89441.17599024487, 97959.00111901775, 100810.7484353481, 80264.98022854092, 86391.61573548506, 86064.69912108174, 83450.23792388891, 111640.83917627802, 98111.08238829164, 54356.112105382934, 94769.18366780087, 105247.45795100427, 101260.8008099557, 89265.31246487051, -187000.93024980192, 0.0, 0.0, 0.0, 196.0, 0.0, 0.0, 0.0, 121.0, 44.0, 37.0, 0.0, 0.0, 0.0, 1.6558068691484497E9, 0.0, 2022-06-21 19:21:09.148
4.0, 95028.28508952679, 89611.22806206085, 94332.18471195517, 99155.46764796587, 80265.76253959686, 86418.81780848716, 85256.86237297802, 83078.79663453062, 110812.81880293117, 94534.17742659777, 50328.84184465907, 87652.09766055318, 105247.68146844882, 101112.78755817265, 88014.59825212935, -187494.88145051975, 0.0, 0.0, 0.0, 196.0, 0.0, 0.0, 0.0, 121.0, 44.0, 45.0, 0.0, 0.0, 0.0, 1.6558068691564488E9, 0.0, 2022-06-21 19:21:09.156
6.0, 94954.50198107983, 89477.0728918401, 98582.68184455417, 101128.50083452473, 80267.66243787557, 86394.1414826085, 86285.17672838888, 83579.85568998524, 111579.57304472603, 97733.80729363053, 53545.61549968905, 94115.52925294987, 105245.6921631923, 101259.34794656611, 89238.78094420207, -187088.63849504455, 0.0, 0.0, 0.0, 196.0, 0.0, 88.0, 0.0, 121.0, 44.0, 53.0, 0.0, 0.0, 0.0, 1.65580686916451E9, 0.0, 2022-06-21 19:21:09.164
8.0, 95045.25006356837, 89579.55564016767, 93764.07042313462, 98875.46734517424, 80261.98509478391, 86427.26676789127, 85037.74822208265, 82951.90578125785, 110884.21027472142, 94986.77790007328, 51208.09241629749, 88456.98397838879, 105244.03813410261, 101127.89733742444, 88080.46884303914, -187417.41030423765, 0.0, 0.0, 0.0, 196.0, 17.5, 72.0, 0.0, 121.0, 44.0, 61.0, 0.0, 0.0, 0.0, 1.6558068691726165E9, 0.0, 2022-06-21 19:21:09.172
10.0, 94898.8014338972, 89492.49559551425, 99057.58935899609, 101366.94924437396, 80264.22026922945, 86397.24837508779, 86480.41921620599, 83686.6970284816, 111493.40706985081, 97258.18452336604, 52647.187131307976, 93247.58866400585, 105250.00604987217, 101250.47430401735, 89161.6003705979, -187151.17867603048, 0.0, 0.0, 0.0, 196.0, 0.0, 0.0, 0.0, 121.0, 44.0, 69.0, 0.0, 0.0, 0.0, 1.6558068691805515E9, 0.0, 2022-06-21 19:21:09.180
12.0, 95065.16546787805, 89546.9891484963, 93364.01890087353, 98664.0868978604, 80266.38838844161, 86408.17837812644, 84868.34435085587, 82836.68253859074, 110995.00787198638, 95529.50060719259, 52173.12898315537, 89441.17599024487, 105237.51142472166, 101131.63007874848, 88182.05752158852, -187332.7642479854, 0.0, 0.0, 0.0, 196.0, 0.0, 0.0, 0.0, 121.0, 44.0, 77.0, 0.0, 0.0, 0.0, 1.6558068691875656E9, 0.0, 2022-06-21 19:21:09.187
14.0, 94905.23873630032, 89528.8842354875, 99339.24369087741, 101514.49310952344, 80251.32331267874, 86399.77412221124, 86594.52487165033, 83760.1672125062, 111367.20912065616, 96709.18097605479, 51691.09126223222, 92217.262651594, 105262.5900820005, 101243.23233881383, 89041.68326159517, -187168.0765948387, 0.0, 0.0, 0.0, 196.0, 0.0, 0.0, 0.0, 121.0, 44.0, 85.0, 0.0, 0.0, 0.0, 1.6558068691955237E9, 0.0, 2022-06-21 19:21:09.195
16.0, 95058.45994454145, 89507.89594744396, 93182.05334926287, 98555.74799248553, 80280.67115314855, 86403.2386426018, 84769.9072682747, 82776.86927042833, 111094.54019004587, 96097.59254426869, 53101.75455829556, 90516.65252645643, 105224.70387514877, 101143.20828237633, 88313.44107549681, -187268.54768616532, 0.0, 0.0, 0.0, 196.0, 0.0, 96.0, 0.0, 121.0, 44.0, 93.0, 0.0, 0.0, 0.0, 1.6558068692045689E9, 0.0, 2022-06-21 19:21:09.204
18.0, 94880.67416914394, 89532.90754948945, 99433.90332864564, 101573.18879046307, 80261.82863257274, 86406.36788682555, 86687.2622593954, 83825.61312027134, 111250.26479366599, 96108.67900951851, 50772.32280639682, 91101.82119629637, 105269.34030882601, 101227.36260025056, 88902.52130061643, -187206.52159530183, 0.0, 0.0, 0.0, 196.0, 17.5, 56.0, 0.0, 121.0, 44.0, 101.0, 0.0, 0.0, 0.0, 1.655806869212596E9, 0.0, 2022-06-21 19:21:09.212
20.0, 95063.15381087706, 89490.23806932427, 93210.46241646558, 98564.19695188964, 80276.93841182452, 86418.77310499825, 84719.28056708344, 82745.7332904021, 111212.4456420476, 96686.4269001993, 53963.70487972556, 91621.6780688379, 105238.3384392665, 101169.18100943339, 88476.02766466471, -187216.13284541763, 0.0, 0.0, 0.0, 196.0, 0.0, 0.0, 0.0, 121.0, 44.0, 109.0, 0.0, 0.0, 0.0, 1.655806869219625E9, 0.0, 2022-06-21 19:21:09.219
22.0, 94903.0482653437, 89572.17956449742, 99310.47699576343, 101527.45712130751, 80225.32823387721, 86397.44954078789, 86647.0961746092, 83821.45569580265, 111103.43618433908, 95537.23431077413, 49923.26944151753, 89979.40599672866, 105258.29854706509, 101200.87578307102, 88722.47799902892, -187260.27754071684, 0.0, 0.0, 0.0, 196.0, 0.0, 0.0, 0.0, 121.0, 44.0, 117.0, 0.0, 0.0, 0.0, 1.6558068692276344E9, 0.0, 2022-06-21 19:21:09.227
24.0, 95063.75730797736, 89458.25272300873, 93449.42491643726, 98668.57959849593, 80278.52538568084, 86409.87711070504, 84756.18329717914, 82756.70799692965, 111328.026512626, 97227.6520404401, 54696.0597868037, 92663.78345057767, 105215.53965992208, 101188.89524804297, 88619.27999487877, -187167.1154698271, 0.0, 0.0, 0.0, 196.0, 0.0, 0.0, 0.0, 121.0, 44.0, 125.0, 0.0, 0.0, 0.0, 1.655806869236574E9, 0.0, 2022-06-21 19:21:09.236
26.0, 94879.08719528762, 89565.29522720519, 99002.13468100247, 101402.80144248027, 80263.05797851777, 86414.48157006282, 86655.2545613354, 83833.5926930419, 111009.73767158244, 94988.7225018409, 49236.98147976178, 88922.21318748155, 105275.46468680676, 101194.21496322333, 88571.11198557759, -187349.08102143777, 0.0, 0.0, 0.0, 196.0, 0.0, 112.0, 0.0, 121.0, 44.0, 133.0, 0.0, 0.0, 0.0, 1.6558068692436109E9, 0.0, 2022-06-21 19:21:09.243
28.0, 95045.85356066866, 89434.1575424859, 93903.72412249137, 98869.16415323784, 80289.52244395285, 86407.4407705594, 84856.16265012774, 82794.8400729704, 111429.21285977517, 97705.9123165503, 55256.66388948726, 93614.80547366208, 105227.90017460588, 101210.79995760918, 88795.56820339778, -187121.40615241602, 0.0, 0.0, 0.0, 196.0, 17.5, 64.0, 0.0, 121.0, 44.0, 141.0, 0.0, 0.0, 0.0, 1.655806869251624E9, 0.0, 2022-06-21 19:21:09.251
30.0, 94887.93848609192, 89608.18822481492, 98513.57025069837, 101180.89332352798, 80260.46517616096, 86426.86443649107, 86544.5240193038, 83774.06999755741, 110871.8721117821, 94542.22405460168, 48761.33635775284, 88020.70027836565, 105269.96615767076, 101174.54542810268, 88404.09975100754, -187448.47922903052, 0.0, 0.0, 0.0, 196.0, 0.0, 0.0, 0.0, 121.0, 44.0, 149.0, 0.0, 0.0, 0.0, 1.655806869260592E9, 0.0, 2022-06-21 19:21:09.260
32.0, 95058.12466837463, 89424.8592167925, 94508.89760361883, 99149.27621475175, 80284.6944671505, 86399.88588093352, 85023.91249226482, 82875.0604838205, 111530.66742785781, 98101.49348992032, 55615.14116706147, 94402.65976222274, 105220.97113382473, 101229.15073980698, 88953.23740878551, -187038.1906078089, 0.0, 0.0, 0.0, 196.0, 0.0, 0.0, 0.0, 121.0, 44.0, 157.0, 0.0, 0.0, 0.0, 1.6558068692686815E9, 0.0, 2022-06-21 19:21:09.268
34.0, 94898.17558505245, 89612.27859405025, 97863.67092891586, 100869.9582064102, 80257.76061508186, 86427.46793359137, 86362.5361159487, 83685.55708951439, 110784.56619793967, 94197.22487893402, 48494.00949406737, 87307.2549470967, 105276.15759088488, 101156.48521858278, 88254.36541490143, -187500.02235174447, 0.0, 0.0, 0.0, 196.0, 0.0, 0.0, 0.0, 121.0, 44.0, 165.0, 0.0, 0.0, 0.0, 1.6558068692756584E9, 0.0, 2022-06-21 19:21:09.275
36.0, 95023.36770574663, 89415.35972539899, 95243.24181595347, 99496.3317509093, 80283.46512120547, 86391.95101165188, 85215.75751492471, 82970.54713613358, 111584.62453897293, 98342.80292305982, 55747.687011681446, 94955.08312643565, 105223.63099141492, 101234.00106835378, 89078.36247424633, -186971.11302269853, 0.0, 0.0, 0.0, 196.0, 0.0, 88.0, 0.0, 121.0, 44.0, 173.0, 0.0, 0.0, 0.0, 1.6558068692836382E9, 0.0, 2022-06-21 19:21:09.283
38.0, 94934.78774247025, 89620.90636740999, 97104.13630058007, 100508.77636775689, 80253.37967316863, 86420.71770676586, 86132.46961027021, 83565.14824213366, 110732.46428161435, 94002.07179809474, 48504.872441872656, 86876.17920353165, 105277.2975298521, 101136.5698142731, 88128.14511396231, -187500.02235174447, 0.0, 0.0, 0.0, 196.0, 17.5, 56.0, 0.0, 121.0, 44.0, 181.0, 0.0, 0.0, 0.0, 1.6558068692926283E9, 0.0, 2022-06-21 19:21:09.292
40.0, 95019.32204000022, 89427.09439123803, 96032.72778185937, 99876.2219996717, 80278.50303393639, 86401.60696525658, 85437.59857864364, 83096.43216090587, 111626.846984249, 98473.87355254575, 55633.715466703834, 95255.55762714836, 105236.30443052106, 101254.09528661911, 89176.3972254273, -186930.14227511195, 0.0, 0.0, 0.0, 196.0, 0.0, 0.0, 0.0, 121.0, 44.0, 189.0, 0.0, 0.0, 0.0, 1.6558068692996988E9, 0.0, 2022-06-21 19:21:09.299
42.0, 94950.67983277797, 89617.82182667516, 96285.90599130464, 100113.19519438688, 80255.7936615698, 86429.16666616997, 85882.2194793486, 83434.25642660337, 110705.77629873471, 93968.2759604783, 48748.46175294659, 86725.19316973606, 105272.35779432749, 101130.17721535888, 88046.74006065608, -187500.02235174447, 0.0, 0.0, 0.0, 196.0, 0.0, 0.0, 0.0, 121.0, 44.0, 197.0, 0.0, 0.0, 0.0, 1.6558068693076885E9, 0.0, 2022-06-21 19:21:09.307
44.0, 94994.2210309769, 89423.4510568918, 96831.10974205848, 100256.1122484341, 80259.16877498255, 86386.94422089389, 85664.71465405401, 83224.32884267913, 111631.71966454026, 98438.17781665061, 55279.5967792984, 95267.47110694303, 105227.36373273894, 101268.40040307051, 89239.25033083562, -186919.6816587069, 0.0, 0.0, 0.0, 196.0, 0.0, 0.0, 0.0, 121.0, 44.0, 205.0, 0.0, 0.0, 0.0, 1.6558068693167105E9, 0.0, 2022-06-21 19:21:09.316
46.0, 94974.57384760068, 89604.5001869798, 95461.43954532618, 99704.42649178821, 80261.53805989481, 86414.16864564046, 85635.59033102874, 83288.14307309903, 110700.65774925445, 94077.7548048204, 49229.09131396906, 86869.29486623942, 105259.21496858777, 101115.9168023964, 87988.75963553901, -187500.02235174447, 0.0, 0.0, 0.0, 196.0, 0.0, 112.0, 0.0, 121.0, 44.0, 213.0, 0.0, 0.0, 0.0, 1.65580686932485E9, 0.0, 2022-06-21 19:21:09.324
48.0, 94975.22204818988, 89421.19353070183, 97606.15648104626, 100632.87325297276, 80273.07156003376, 86382.76444468075, 85945.67608185722, 83367.08943451518, 111634.69244655281, 98264.1471343216, 54729.095665108645, 94998.4231589345, 105232.12465430793, 101253.06710637416, 89270.94510447326, -186937.56305427113, 0.0, 0.0, 0.0, 196.0, 17.0, 160.0, 0.0, 121.0, 44.0, 221.0, 0.0, 0.0, 0.0, 1.6558068693327987E9, 0.0, 2022-06-21 19:21:09.332
50.0, 94981.72640582638, 89573.81124184266, 94691.06432092957, 99329.5430337838, 80251.3903679121, 86405.898500192, 85354.11481310306, 83130.69738515584, 110740.60031659607, 94355.4752296776, 49921.12367404982, 87302.91870867237, 105261.9418814113, 101104.74093016874, 87989.58665008386, -187500.02235174447, 0.0, 0.0, 0.0, 196.0, 0.0, 0.0, 0.0, 121.0, 44.0, 229.0, 0.0, 0.0, 0.0, 1.655806869339754E9, 0.0, 2022-06-21 19:21:09.339
52.0, 94925.66823073248, 89450.87664733847, 98280.12863160713, 100972.26214078214, 80270.61286814367, 86389.84994767308, 86170.35581712196, 83506.74313387193, 111556.05900955905, 97943.0196217322, 53987.241266637, 94464.86466704187, 105246.38506727041, 101256.97866165385, 89253.30957809801, -186993.91180204295, 0.0, 0.0, 0.0, 196.0, 0.0, 0.0, 0.0, 121.0, 44.0, 237.0, 0.0, 0.0, 0.0, 1.6558068693487687E9, 0.0, 2022-06-21 19:21:09.348
54.0, 95022.49598771287, 89569.87733481854, 94057.61588306617, 99017.84795735455, 80276.37961821313, 86429.01020395878, 85164.88494454444, 83012.90369187637, 110795.0491660892, 94740.95341455382, 50742.371468826714, 88001.85775778982, 105247.63676495991, 101132.88177643798, 88049.15404905725, -187440.90198766018, 0.0, 0.0, 0.0, 196.0, 0.0, 0.0, 0.0, 121.0, 44.0, 245.0, 0.0, 0.0, 0.0, 1.6558068693557308E9, 0.0, 2022-06-21 19:21:09.355
56.0, 94920.9073091635, 89441.66772862288, 98839.50338834565, 101254.13999010801, 80267.17069949755, 86394.90144191998, 86381.0433603577, 83626.61553938575, 111499.64320655385, 97519.54347128196, 53125.9391457962, 93711.23089924228, 105256.42100053084, 101247.03213537124, 89210.57304269947, -187117.1146174806, 0.0, 0.0, 0.0, 196.0, 0.0, 88.0, 0.0, 121.0, 44.0, 253.0, 0.0, 0.0, 0.0, 1.655806869363802E9, 0.0, 2022-06-21 19:21:09.363
58.0, 95044.82538042372, 89540.55184609316, 93566.16807772733, 98769.29655901153, 80277.72072288046, 86420.94122421042, 84962.13227059034, 82900.34030679945, 110873.83906529416, 95240.09021998529, 51663.8444857412, 88905.82935879582, 105256.86803541995, 101124.85750017852, 88132.19077970872, -187364.50372511195, 0.0, 0.0, 0.0, 196.0, 17.0, 184.0, 0.0, 121.0, 45.0, 5.0, 0.0, 0.0, 0.0, 1.6558068693718832E9, 0.0, 2022-06-21 19:21:09.371
60.0, 94893.25820127229, 89489.47811001279, 99235.55394834923, 101456.93736755101, 80269.11530126516, 86394.96849715334, 86548.97201645041, 83732.20518019261, 111386.3422139099, 97013.76819774727, 52194.05021596554, 92772.39057688601, 105282.50548631018, 101244.77460918124, 89119.82496021091, -187148.80939111824, 0.0, 0.0, 0.0, 196.0, 0.0, 0.0, 0.0, 121.0, 45.0, 13.0, 0.0, 0.0, 0.0, 1.6558068693797984E9, 0.0, 2022-06-21 19:21:09.379
62.0, 95046.25589206886, 89503.98439216429, 93267.8616962268, 98611.49324315706, 80281.18524327103, 86420.78476199922, 84822.29975727794, 82814.82253251346, 110989.26347366137, 95794.39113073245, 52617.59342164915, 89946.90656029065, 105255.16930284134, 101138.73793348527, 88251.75026080017, -187292.73227366596, 0.0, 0.0, 0.0, 196.0, 0.0, 0.0, 0.0, 121.0, 45.0, 21.0, 0.0, 0.0, 0.0, 1.6558068693878608E9, 0.0, 2022-06-21 19:21:09.387
64.0, 94889.81603262616, 89504.34202007556, 99428.36009602071, 101566.1703427041, 80272.55746991128, 86400.53408152272, 86653.86875317917, 83800.24389031457, 111281.13255275876, 96419.90469931421, 51241.12829460243, 91699.1939186089, 105273.76595422816, 101234.895138132, 88987.81555745787, -187185.39919679158, 0.0, 0.0, 0.0, 196.0, 0.0, 0.0, 0.0, 121.0, 45.0, 29.0, 0.0, 0.0, 0.0, 1.6558068693968735E9, 0.0, 2022-06-21 19:21:09.396
66.0, 95058.25877884135, 89471.8202318931, 93177.00185501599, 98547.32138482587, 80274.72558912344, 86399.88588093352, 84723.9520816746, 82744.16866829022, 111092.79675397836, 96382.33141688483, 53519.508662165244, 91046.67944272512, 105243.76991316915, 101152.26073888072, 88391.94040202384, -187249.21342721148, 0.0, 0.0, 0.0, 196.0, 0.0, 88.0, 0.0, 121.0, 45.0, 37.0, 0.0, 0.0, 0.0, 1.6558068694049025E9, 0.0, 2022-06-21 19:21:09.404
68.0, 94862.23397996831, 89517.01545918173, 99418.45827322702, 101569.74662181696, 80256.77713832584, 86394.90144191998, 86685.89880298362, 83833.81621048645, 111128.53719336238, 95824.5659857471, 50334.40742902845, 90557.15388740944, 105268.46859079225, 101212.20811750986, 88816.35532574121, -187236.7411538054, 0.0, 0.0, 0.0, 196.0, 17.5, 48.0, 0.0, 121.0, 45.0, 45.0, 0.0, 0.0, 0.0, 1.6558068694109516E9, 0.0, 2022-06-21 19:21:09.410
70.0, 95062.21503760995, 89462.52190619969, 93327.71966787812, 98604.8771267983, 80295.31154576679, 86397.15896810997, 84746.43793659663, 82745.48742121308, 111216.75952872749, 96958.82760987611, 54351.306480325045, 92145.62531061475, 105223.63099141492, 101163.50366634176, 88547.48619168832, -187192.5964585062, 0.0, 0.0, 0.0, 196.0, 0.0, 0.0, 0.0, 121.0, 45.0, 53.0, 0.0, 0.0, 0.0, 1.6558068694199371E9, 0.0, 2022-06-21 19:21:09.419
72.0, 94870.77234635025, 89554.85696254457, 99207.30134335773, 101482.5524666968, 80262.23096397292, 86399.32708732213, 86675.63935227864, 83832.20688488566, 111016.1526222411, 95275.04834831339, 49599.213850404485, 89463.84065912255, 105276.82814321855, 101199.71349235934, 88659.73665234288, -187299.5495557248, 0.0, 0.0, 0.0, 196.0, 0.0, 0.0, 0.0, 121.0, 45.0, 61.0, 0.0, 0.0, 0.0, 1.6558068694279113E9, 0.0, 2022-06-21 19:21:09.427
74.0, 95053.56491250574, 89413.95156549831, 93656.44677358231, 98756.71252688319, 80288.58367068574, 86411.73230549482, 84793.2648412305, 82763.01118886605, 111334.21794584012, 97483.13247956426, 55017.32140985983, 93155.94651173908, 105232.14700605239, 101197.63478012501, 88704.12721683113, -187157.88419936708, 0.0, 0.0, 0.0, 196.0, 0.0, 0.0, 0.0, 121.0, 45.0, 69.0, 0.0, 0.0, 0.0, 1.655806869435953E9, 0.0, 2022-06-21 19:21:09.435
76.0, 94891.98415183833, 89567.79862258419, 98777.94668411574, 101295.1107376946, 80251.56918186774, 86408.15602638198, 86573.24601092888, 83787.90572737524, 110893.93328355948, 94761.20409503032, 48965.22897067416, 88446.21043756133, 105284.51714331117, 101185.87776254151, 88484.387217091, -187411.84471986827, 0.0, 0.0, 0.0, 196.0, 0.0, 104.0, 0.0, 121.0, 45.0, 77.0, 0.0, 0.0, 0.0, 1.6558068694439473E9, 0.0, 2022-06-21 19:21:09.443
78.0, 95031.74960991736, 89398.64062054642, 94178.1811926581, 98988.9695035183, 80286.3484962402, 86393.04624713019, 84910.85736880987, 82820.65633781628, 111421.25563874909, 97900.66306598939, 55428.325286904015, 94004.4857864959, 105213.17037500982, 101198.75236734777, 88856.70022448305, -187094.0029137138, 0.0, 0.0, 0.0, 196.0, 17.0, 160.0, 0.0, 121.0, 45.0, 85.0, 0.0, 0.0, 0.0, 1.6558068694519696E9, 0.0, 2022-06-21 19:21:09.451
80.0, 94871.71111961736, 89600.14159681101, 98209.05008423926, 101029.05792344308, 80262.99092328441, 86411.46408456136, 86451.27254143626, 83727.22074117909, 110766.72950586434, 94349.8202383304, 48584.0199689889, 87638.50779992435, 105281.96904444326, 101164.17421867541, 88321.01831686715, -187499.46355813308, 0.0, 0.0, 0.0, 196.0, 0.0, 0.0, 0.0, 121.0, 45.0, 93.0, 0.0, 0.0, 0.0, 1.6558068694600065E9, 0.0, 2022-06-21 19:21:09.460
82.0, 95021.06547606773, 89388.98466694173, 94857.22718921033, 99307.59362072869, 80276.89370833561, 86384.10554934807, 85084.39631276087, 82901.5696527445, 111513.81421253852, 98230.32894496071, 55672.518095078245, 94680.02255916865, 105226.89434610539, 101228.32372526213, 89010.18965365764, -187001.82431958013, 0.0, 0.0, 0.0, 196.0, 0.0, 0.0, 0.0, 121.0, 45.0, 101.0, 0.0, 0.0, 0.0, 1.6558068694670043E9, 0.0, 2022-06-21 19:21:09.467
84.0, 94883.33402673413, 89587.35639898258, 97500.49978500603, 100695.32402698089, 80253.42437665754, 86412.35815433957, 86246.19528605882, 83618.77007708194, 110713.55470580516, 94094.25039222842, 48468.439098410505, 87068.62772329185, 105268.91562568136, 101143.5212067987, 88178.03420758656, -187500.02235174447, 0.0, 0.0, 0.0, 196.0, 0.0, 0.0, 0.0, 121.0, 45.0, 109.0, 0.0, 0.0, 0.0, 1.655806869476006E9, 0.0, 2022-06-21 19:21:09.476
86.0, 95019.76907488932, 89380.06632090406, 95621.58979434846, 99676.21859028561, 80279.48651069243, 86382.96561038085, 85315.9380335734, 83023.63252921493, 111565.1338178079, 98416.98836290698, 55708.236182717825, 95123.57057613977, 105226.15673853837, 101231.16239680797, 89125.47995155811, -186926.74480995475, 0.0, 0.0, 0.0, 196.0, 0.0, 104.0, 0.0, 121.0, 45.0, 117.0, 0.0, 0.0, 0.0, 1.655806869483996E9, 0.0, 2022-06-21 19:21:09.483
88.0, 94944.62251003057, 89605.61777420256, 96710.85735688894, 100327.10138882416, 80270.18818499902, 86419.73423000982, 86032.87023697737, 83509.44769495103, 110667.5771674606, 93982.04463506278, 48621.325030484804, 86773.71880694853, 105268.93797742581, 101124.1198926115, 88082.1899273622, -187500.02235174447, 0.0, 0.0, 0.0, 196.0, 17.0, 176.0, 0.0, 121.0, 45.0, 125.0, 0.0, 0.0, 0.0, 1.6558068694920185E9, 0.0, 2022-06-21 19:21:09.492
90.0, 94976.74196681286, 89387.30828610758, 96433.24869075403, 100076.76185092473, 80287.35432474069, 86390.92283140693, 85569.00448429638, 83166.95191466235, 111600.11429788046, 98478.61212237026, 55499.4485377608, 95297.2436305575, 105242.40645675737, 101252.1506848515, 89219.84901664843, -186920.91100465192, 0.0, 0.0, 0.0, 196.0, 0.0, 0.0, 0.0, 121.0, 45.0, 133.0, 0.0, 0.0, 0.0, 1.6558068694990323E9, 0.0, 2022-06-21 19:21:09.499
92.0, 94944.10841990811, 89588.42928271643, 95877.53962010618, 99931.34140149849, 80270.12112976566, 86426.05977369068, 85767.13034714822, 83365.99419903687, 110649.53930968516, 94026.23403385092, 48987.40190117382, 86786.0793216323, 105267.61922450295, 101130.19956710334, 88015.80524632994, -187500.02235174447, 0.0, 0.0, 0.0, 196.0, 0.0, 0.0, 0.0, 121.0, 45.0, 141.0, 0.0, 0.0, 0.0, 1.655806869508037E9, 0.0, 2022-06-21 19:21:09.508
94.0, 94956.98302471435, 89392.98562919923, 97205.5461651738, 100458.88727413265, 80288.67307766355, 86388.91117440596, 85815.23130121604, 83303.40931456201, 111586.56914074054, 98366.60753090472, 55019.489529071994, 95178.68997796655, 105238.3384392665, 101270.61322577158, 89269.11226142792, -186967.6261505635, 0.0, 0.0, 0.0, 196.0, 0.0, 0.0, 0.0, 121.0, 45.0, 149.0, 0.0, 0.0, 0.0, 1.6558068695160296E9, 0.0, 2022-06-21 19:21:09.516
96.0, 94958.99468171534, 89584.04834080319, 95081.37048260814, 99539.13534154122, 80265.13669075212, 86420.96357595487, 85499.64702125157, 83219.65732808797, 110658.14473130045, 94199.0353702349, 49531.30925074926, 87071.01935994856, 105258.90204416538, 101122.71173271081, 87991.28538266246, -187500.02235174447, 0.0, 0.0, 0.0, 196.0, 0.0, 104.0, 0.0, 121.0, 45.0, 157.0, 0.0, 0.0, 0.0, 1.6558068695231206E9, 0.0, 2022-06-21 19:21:09.523
98.0, 94945.91891120898, 89416.03027773264, 97944.40542988843, 100812.78244409352, 80263.84028957371, 86375.3883690105, 86038.77109751357, 83426.27685383282, 111546.60422165444, 98133.90351938052, 54384.923503985825, 94796.4751477808, 105230.29181126259, 101264.04181290172, 89267.19001140476, -186969.66015930893, 0.0, 0.0, 0.0, 196.0, 17.0, 160.0, 0.0, 121.0, 45.0, 165.0, 0.0, 0.0, 0.0, 1.6558068695321364E9, 0.0, 2022-06-21 19:21:09.532
100.0, 94980.49705988134, 89559.34966318008, 94363.23128500358, 99178.5569999882, 80258.47587090444, 86405.47381704734, 85243.40662281592, 83064.46916633478, 110741.96377300785, 94544.34747032494, 50313.396789240454, 87634.7303551114, 105247.346192282, 101105.72440692478, 88000.51665312251, -187480.82220325735, 0.0, 0.0, 0.0, 196.0, 0.0, 0.0, 0.0, 121.0, 45.0, 173.0, 0.0, 0.0, 0.0, 1.6558068695400991E9, 0.0, 2022-06-21 19:21:09.540
102.0, 94916.72753295035, 89426.04385924863, 98565.67216702369, 101123.62815423348, 80262.87916456212, 86390.69931396238, 86270.04459739264, 83563.6283235107, 111489.40610759331, 97765.32325331251, 53582.94291292941, 94149.43684928857, 105246.76504692616, 101260.53258902223, 89237.08221162346, -187066.77848896725, 0.0, 0.0, 0.0, 196.0, 0.0, 0.0, 0.0, 121.0, 45.0, 181.0, 0.0, 0.0, 0.0, 1.6558068695472023E9, 0.0, 2022-06-21 19:21:09.547
104.0, 94987.53785938477, 89554.90166603347, 93784.94695245588, 98882.55284816657, 80268.28828672032, 86398.74594196629, 85025.05243123203, 82943.99326372067, 110766.95302330889, 94992.3658361871, 51184.37721543041, 88436.24155953426, 105246.78739867061, 101127.49500602426, 88068.24243882208, -187402.70285638605, 0.0, 0.0, 0.0, 196.0, 0.0, 0.0, 0.0, 121.0, 45.0, 189.0, 0.0, 0.0, 0.0, 1.6558068695551894E9, 0.0, 2022-06-21 19:21:09.555
106.0, 94886.53032619123, 89465.58409519006, 99042.83720765558, 101362.4788954829, 80267.46127217547, 86379.27757254572, 86459.56503862918, 83675.99054288752, 111401.78726932852, 97273.02608168437, 52660.397012281064, 93280.82570801089, 105258.94674765429, 101251.61424298456, 89160.1475072083, -187144.40609746054, 0.0, 0.0, 0.0, 196.0, 0.0, 96.0, 0.0, 121.0, 45.0, 197.0, 0.0, 0.0, 0.0, 1.6558068695642247E9, 0.0, 2022-06-21 19:21:09.564
108.0, 95008.68260963948, 89523.67627902942, 93395.37839834433, 98686.30453184897, 80277.94424032501, 86424.15987541198, 84887.8350720209, 82853.20047774322, 110898.49303942837, 95512.87090931785, 52111.952258581194, 89414.33154515404, 105237.0420380881, 101127.85263393553, 88185.72320767918, -187330.23850086195, 0.0, 0.0, 0.0, 196.0, 17.0, 152.0, 0.0, 121.0, 45.0, 205.0, 0.0, 0.0, 0.0, 1.655806869571286E9, 0.0, 2022-06-21 19:21:09.571
110.0, 94843.57027334813, 89506.04075265417, 99342.23882463442, 101529.02174341939, 80263.43795817351, 86396.66722973195, 86608.24884274589, 83764.9728375641, 111293.33660523136, 96726.57063324102, 51712.437178187036, 92278.37232093481, 105261.31603256655, 101246.54039699321, 89054.9154943127, -187167.0707663382, 0.0, 0.0, 0.0, 196.0, 0.0, 0.0, 0.0, 121.0, 45.0, 213.0, 0.0, 0.0, 0.0, 1.655806869579156E9, 0.0, 2022-06-21 19:21:09.579
112.0, 95048.17814209202, 89494.30608681514, 93201.87934659474, 98578.74793753005, 80281.6993333935, 86406.12201763655, 84774.62348635477, 82786.68168624422, 111006.18374421404, 96098.64307625809, 53040.62253721029, 90503.0626658276, 105239.61248870046, 101147.76803824521, 88318.38081102143, -187273.80034611232, 0.0, 0.0, 0.0, 196.0, 0.0, 0.0, 0.0, 121.0, 45.0, 221.0, 0.0, 0.0, 0.0, 1.6558068695882337E9, 0.0, 2022-06-21 19:21:09.588
114.0, 94875.91324757496, 89523.34100286258, 99444.78862819537, 101584.38701443518, 80252.93263827953, 86389.67113371743, 86676.17579414557, 83818.43821030119, 111175.96759509655, 96147.59339661521, 50798.04966426488, 91176.54307801045, 105269.63088150394, 101223.27223101525, 88908.7797890639, -187199.32433358722, 0.0, 0.0, 0.0, 196.0, 0.0, 0.0, 0.0, 121.0, 45.0, 229.0, 0.0, 0.0, 0.0, 1.6558068695962586E9, 0.0, 2022-06-21 19:21:09.596
116.0, 95003.00526654784, 89485.07481635509, 93227.91912888517, 98572.51180082701, 80279.57591767024, 86399.66236348895, 84727.68482299862, 82747.76729914753, 111104.84434423975, 96675.09456576045, 53926.84685311876, 91604.78015002968, 105228.2354507727, 101156.5746255606, 88461.99076914678, -187209.67319127003, 0.0, 0.0, 0.0, 196.0, 0.0, 88.0, 0.0, 121.0, 45.0, 237.0, 0.0, 0.0, 0.0, 1.65580686960324E9, 0.0, 2022-06-21 19:21:09.603
118.0, 94841.84918902507, 89563.70825334886, 99318.45656853398, 101542.67865928158, 80248.93167602202, 86391.99571514079, 86680.71319827, 83829.61408252885, 111031.35180847072, 95563.13998259783, 49958.272273334536, 90039.82276199135, 105275.95642518479, 101199.55703014816, 88744.96385395096, -187269.5088111769, 0.0, 0.0, 0.0, 196.0, 17.0, 160.0, 0.0, 121.0, 45.0, 245.0, 0.0, 0.0, 0.0, 1.65580686961121E9, 0.0, 2022-06-21 19:21:09.611
120.0, 95021.40075223455, 89459.92910384288, 93450.69896587121, 98660.98000538112, 80263.9967517849, 86389.55937499517, 84726.5448840314, 82731.4281739507, 111236.69728478162, 97209.79299662031, 54636.71590527486, 92635.64260430845, 105229.7330176512, 101167.50462859924, 88617.51420706681, -187187.81318519273, 0.0, 0.0, 0.0, 196.0, 0.0, 0.0, 0.0, 121.0, 45.0, 253.0, 0.0, 0.0, 0.0, 1.655806869620337E9, 0.0, 2022-06-21 19:21:09.620
122.0, 94847.81710479464, 89568.22330572884, 99019.50198644424, 101409.43991058349, 80234.51480084835, 86389.96170639536, 86609.90287183558, 83807.7317247071, 110931.86419390014, 95009.3755137176, 49244.89399729896, 88962.11105133427, 105276.69403275181, 101177.8311345376, 88564.38411049654, -187347.60580630373, 0.0, 0.0, 0.0, 196.0, 0.0, 0.0, 0.0, 121.0, 46.0, 5.0, 0.0, 0.0, 0.0, 1.6558068696272802E9, 0.0, 2022-06-21 19:21:09.627
124.0, 95016.37160973212, 89437.39854543192, 93901.6677620015, 98870.97464453873, 80283.97921132794, 86393.76150295277, 84850.95469366964, 82790.4367793127, 111332.58626849488, 97694.71409257819, 55204.51726967302, 93608.18935730332, 105214.46677618823, 101200.45109992637, 88786.09106374872, -187116.19819595793, 0.0, 0.0, 0.0, 196.0, 0.0, 0.0, 0.0, 121.0, 46.0, 13.0, 0.0, 0.0, 0.0, 1.6558068696353002E9, 0.0, 2022-06-21 19:21:09.635
126.0, 94862.65866311296, 89602.24266078981, 98541.3087655674, 101190.34811143257, 80253.71494933545, 86406.9937356703, 86539.673690757, 83771.63365741177, 110785.88495086253, 94566.83332524697, 48763.75034615402, 88085.05095065248, 105272.42484956085, 101153.60184354805, 88412.369896456, -187437.2810050584, 0.0, 0.0, 0.0, 196.0, 0.0, 88.0, 0.0, 121.0, 46.0, 21.0, 0.0, 0.0, 0.0, 1.6558068696432917E9, 0.0, 2022-06-21 19:21:09.643
128.0, 95020.79725513427, 89437.17502798737, 94503.95786809419, 99146.83987460613, 80273.92092632306, 86387.83829067211, 84987.79207322503, 82862.78937611454, 111436.41012148978, 98075.18548669643, 55577.99256777675, 94391.03685510598, 105220.85937510246, 101220.76883563625, 88939.73695513452, -187010.58620340662, 0.0, 0.0, 0.0, 196.0, 17.0, 168.0, 0.0, 121.0, 46.0, 29.0, 0.0, 0.0, 0.0, 1.6558068696523197E9, 0.0, 2022-06-21 19:21:09.652
130.0, 94877.58962840911, 89613.86556790657, 97883.42987101435, 100886.85612521842, 80243.50020211938, 86406.85962520356, 86353.30484548866, 83686.56291801488, 110716.10280467306, 94229.67961188313, 48515.17659606655, 87356.89817153194, 105263.23828258972, 101135.34046832807, 88250.05152822156, -187500.02235174447, 0.0, 0.0, 0.0, 196.0, 0.0, 0.0, 0.0, 121.0, 46.0, 37.0, 0.0, 0.0, 0.0, 1.6558068696593149E9, 0.0, 2022-06-21 19:21:09.659
132.0, 94980.78763255927, 89414.17508294286, 95234.90461527165, 99503.0372742459, 80286.5943654292, 86399.30473557768, 85218.864407404, 82988.80851135356, 111498.14563967535, 98346.80388531732, 55698.75904306878, 94942.52144605177, 105221.44052045829, 101238.60552771158, 89074.89795385575, -186963.44637435037, 0.0, 0.0, 0.0, 196.0, 0.0, 0.0, 0.0, 121.0, 46.0, 45.0, 0.0, 0.0, 0.0, 1.6558068696674228E9, 0.0, 2022-06-21 19:21:09.667
134.0, 94871.95698880637, 89616.88305340803, 97136.83690271818, 100536.89486228167, 80258.76644358235, 86420.09185792111, 86158.64350302739, 83586.78473076639, 110651.32744924158, 94045.83651373822, 48518.5517094793, 86923.98958492155, 105276.2022943738, 101139.117913141, 88143.90309380331, -187500.02235174447, 0.0, 0.0, 0.0, 196.0, 0.0, 0.0, 0.0, 121.0, 46.0, 53.0, 0.0, 0.0, 0.0, 1.6558068696763763E9, 0.0, 2022-06-21 19:21:09.676
136.0, 94978.44069939146, 89410.84467301902, 96019.69671484194, 99876.69138630526, 80280.62644965964, 86389.49231976179, 85440.83958158965, 83103.3164981981, 111533.66256161482, 98471.90659903367, 55596.320998230105, 95244.40410666516, 105218.26657274563, 101241.53360623523, 89184.95794355369, -186909.19869055733, 0.0, 0.0, 0.0, 196.0, 0.0, 80.0, 0.0, 121.0, 46.0, 61.0, 0.0, 0.0, 0.0, 1.6558068696833751E9, 0.0, 2022-06-21 19:21:09.683
138.0, 94922.09195161963, 89626.98604190184, 96306.04491305887, 100127.79088351618, 80245.82478354273, 86405.63027925853, 85878.01735139101, 83428.22145560045, 110614.31296042359, 93991.94645785648, 48755.23433151655, 86745.75677463494, 105262.32186106704, 101103.62334294598, 88046.00245308907, -187500.02235174447, 0.0, 0.0, 0.0, 196.0, 17.0, 144.0, 0.0, 121.0, 46.0, 69.0, 0.0, 0.0, 0.0, 1.655806869691396E9, 0.0, 2022-06-21 19:21:09.691
140.0, 94967.2201236749, 89407.69307705082, 96822.12434078746, 100262.88482700406, 80261.18043198352, 86380.48456674631, 85670.52610761239, 83230.29675844869, 111558.9870880827, 98440.74826726297, 55249.55603475047, 95250.46142941253, 105217.57366866752, 101255.5481500087, 89240.94906341423, -186924.3755250425, 0.0, 0.0, 0.0, 196.0, 0.0, 0.0, 0.0, 121.0, 46.0, 77.0, 0.0, 0.0, 0.0, 1.6558068696994264E9, 0.0, 2022-06-21 19:21:09.699
142.0, 94899.4049309975, 89589.74803563929, 95493.98368525312, 99736.65770729276, 80257.67120810405, 86412.35815433957, 85640.12773515318, 83300.54829127173, 110609.61909408798, 94103.28049698836, 49233.13697971547, 86887.06450308139, 105250.96717488376, 101114.12866283997, 88001.27661243398, -187500.02235174447, 0.0, 0.0, 0.0, 196.0, 0.0, 0.0, 0.0, 121.0, 46.0, 84.5, 0.0, 0.0, 0.0, 1.6558068697084756E9, 0.0, 2022-06-21 19:21:09.708
144.0, 94910.87137590307, 89409.12358869596, 97601.70848389965, 100643.28916588893, 80273.51859492286, 86375.1424998215, 85945.78784057949, 83376.14189101958, 111525.79474756656, 98271.00911986937, 54719.439711503954, 95008.81672010622, 105225.55324143807, 101243.43350451393, 89282.00921797863, -186942.90512119594, 0.0, 0.0, 0.0, 196.0, 0.0, 0.0, 0.0, 121.0, 46.0, 92.0, 0.0, 0.0, 0.0, 1.655806869715485E9, 0.0, 2022-06-21 19:21:09.715
146.0, 94948.64582403253, 89597.32527700964, 94726.69300159134, 99355.51576084088, 80259.05701626027, 86416.53793055272, 85375.88541220254, 83154.90432440095, 110647.48294919527, 94362.51602918102, 49911.13244427829, 87319.88368271396, 105254.76697144116, 101100.27058127768, 88002.14833046775, -187500.02235174447, 0.0, 0.0, 0.0, 196.0, 0.0, 88.0, 0.0, 121.0, 46.0, 100.0, 0.0, 0.0, 0.0, 1.6558068697236052E9, 0.0, 2022-06-21 19:21:09.723
148.0, 94914.402951527, 89435.34218494204, 98272.32787279223, 100977.76066991815, 80251.16685046755, 86384.4408255149, 86158.82231698303, 83503.14450301463, 111482.76763949009, 97960.02929926268, 53988.71648177105, 94479.37094919336, 105238.83017764452, 101247.0991906046, 89259.3221973565, -187005.86998532654, 0.0, 0.0, 0.0, 196.0, 17.0, 160.0, 0.0, 121.0, 46.0, 108.0, 0.0, 0.0, 0.0, 1.6558068697316897E9, 0.0, 2022-06-21 19:21:09.731
150.0, 94978.70892032492, 89570.70434936337, 94076.0560722418, 99029.96260284932, 80256.97830402594, 86407.21725311485, 85132.40785985088, 83016.45761924477, 110708.6820255139, 94759.79593512964, 50722.456064517035, 88001.3213159229, 105238.89723287789, 101116.27443030769, 88035.56418842843, -187444.81354293987, 0.0, 0.0, 0.0, 196.0, 0.0, 0.0, 0.0, 121.0, 46.0, 116.0, 0.0, 0.0, 0.0, 1.655806869739501E9, 0.0, 2022-06-21 19:21:09.739
152.0, 94875.15328826348, 89478.92808662988, 98830.2274143967, 101263.05833614568, 80274.01033330087, 86385.91604064895, 86383.97143888133, 83639.24427500299, 111399.01565301606, 97530.38406734278, 53125.82738707392, 93725.51366394921, 105255.12459935244, 101257.58215875414, 89211.69062992223, -187118.03103900328, 0.0, 0.0, 0.0, 196.0, 0.0, 0.0, 0.0, 121.0, 46.0, 124.0, 0.0, 0.0, 0.0, 1.6558068697474627E9, 0.0, 2022-06-21 19:21:09.747
154.0, 94993.52812689879, 89544.39634613947, 93586.79873785959, 98783.98165511867, 80278.39127521412, 86418.77310499825, 84961.17114557876, 82909.1245423704, 110822.27359083577, 95250.55083639036, 51632.30617431476, 88898.25211742547, 105249.38020102742, 101124.3210583116, 88139.94683503472, -187377.11010898472, 0.0, 0.0, 0.0, 196.0, 0.0, 0.0, 0.0, 121.0, 46.0, 132.0, 0.0, 0.0, 0.0, 1.6558068697555137E9, 0.0, 2022-06-21 19:21:09.755
156.0, 94868.67128237145, 89485.00776112173, 99221.44999759794, 101458.68080361854, 80249.98220801142, 86382.0938923471, 86521.74759170385, 83711.99920320502, 111308.17816354969, 97021.9489362179, 52195.27956191058, 92788.64029510503, 105248.10615159347, 101237.55499572218, 89116.3827915648, -187142.19327475945, 0.0, 0.0, 0.0, 196.0, 0.0, 88.0, 0.0, 121.0, 46.0, 140.0, 0.0, 0.0, 0.0, 1.6558068697635083E9, 0.0, 2022-06-21 19:21:09.763
158.0, 95044.64656646807, 89526.24672964177, 93288.17943193667, 98620.16572000572, 80269.8976123211, 86405.71968623635, 84806.45237045913, 82819.51639884907, 110904.30449298675, 95812.1607675744, 52589.720796313384, 89943.9337782781, 105224.30154374857, 101125.79627344565, 88241.11083043943, -187289.71478816448, 0.0, 0.0, 0.0, 196.0, 17.0, 176.0, 0.0, 121.0, 46.0, 148.0, 0.0, 0.0, 0.0, 1.6558068697717726E9, 0.0, 2022-06-21 19:21:09.771
160.0, 94875.62267489704, 89513.97562193581, 99424.0685610853, 101580.58721787778, 80270.81403384377, 86410.77118048325, 86667.50331729691, 83815.08544863289, 111194.34072903881, 96460.20489456713, 51268.777402493644, 91724.56314856568, 105260.98075639973, 101238.78434166723, 88995.10222615031, -187173.95510363046, 0.0, 0.0, 0.0, 196.0, 0.0, 0.0, 0.0, 121.0, 46.0, 156.0, 0.0, 0.0, 0.0, 1.6558068697795205E9, 0.0, 2022-06-21 19:21:09.779
162.0, 95014.24819400886, 89486.08064485558, 93210.3506577433, 98576.2668938955, 80285.20855727298, 86403.55156702419, 84747.68963428613, 82770.76724419204, 111033.07289279377, 96393.37317864576, 53497.53689736568, 91053.72024222855, 105236.0362095876, 101153.66889878141, 88403.04921901814, -187241.32326141876, 0.0, 0.0, 0.0, 196.0, 0.0, 0.0, 0.0, 121.0, 46.0, 164.0, 0.0, 0.0, 0.0, 1.6558068697875469E9, 0.0, 2022-06-21 19:21:09.787
164.0, 94828.34873537406, 89541.58002633811, 99426.12492157519, 101594.1323750177, 80250.7868708118, 86409.92181419395, 86685.7646925169, 83838.21950414414, 111067.38282053267, 95866.83313451208, 50371.06428993515, 90610.75337061327, 105285.00888168918, 101218.95834433536, 88843.49034350995, -187228.76158103487, 0.0, 0.0, 0.0, 196.0, 0.0, 0.0, 0.0, 121.0, 46.0, 172.0, 0.0, 0.0, 0.0, 1.6558068697944872E9, 0.0, 2022-06-21 19:21:09.794
166.0, 95039.77388617682, 89474.61419995001, 93354.76527866905, 98625.10545553034, 80284.15802528358, 86413.85572121807, 84747.53317207494, 82772.98006689311, 111153.97347855252, 96967.00834834676, 54304.63603790236, 92144.46301990307, 105218.17716576782, 101166.38704137648, 88561.0537005727, -187188.77431020432, 0.0, 0.0, 0.0, 196.0, 0.0, 72.0, 0.0, 121.0, 46.0, 180.0, 0.0, 0.0, 0.0, 1.655806869804566E9, 0.0, 2022-06-21 19:21:09.804
168.0, 94863.17275323544, 89556.64510210099, 99216.95729696243, 101507.09468210873, 80261.18043198352, 86409.38537232701, 86684.82591924976, 83850.80353627248, 110940.0896358597, 95311.12406386425, 49626.907661784615, 89501.88332818549, 105267.32865182504, 101200.47345167083, 88673.77354786081, -187295.16861381158, 0.0, 0.0, 0.0, 196.0, 17.5, 88.0, 0.0, 121.0, 46.0, 188.0, 0.0, 0.0, 0.0, 1.655806869811553E9, 0.0, 2022-06-21 19:21:09.811
170.0, 95004.63694389307, 89432.59292037404, 93681.19015469434, 98768.78246888905, 80273.8985745786, 86388.30767730567, 84785.21821322659, 82769.96258139165, 111266.53686362946, 97484.89826737622, 54955.87646435219, 93135.49466556248, 105223.54158443709, 101187.19651546437, 88725.20491185247, -187163.4721354809, 0.0, 0.0, 0.0, 196.0, 0.0, 0.0, 0.0, 121.0, 46.0, 196.0, 0.0, 0.0, 0.0, 1.6558068698197367E9, 0.0, 2022-06-21 19:21:09.819
172.0, 94840.88806401349, 89582.43901520241, 98795.82807967998, 101323.162176986, 80232.3913851251, 86417.14142765301, 86562.11484219013, 83797.8299019134, 110813.04232037572, 94795.0222843912, 48994.30859021051, 88494.37844686252, 105271.21785536026, 101183.91080902945, 88488.09760667058, -187404.60275466475, 0.0, 0.0, 0.0, 196.0, 0.0, 0.0, 0.0, 121.0, 46.0, 204.0, 0.0, 0.0, 0.0, 1.655806869826658E9, 0.0, 2022-06-21 19:21:09.826
174.0, 95027.36866800413, 89441.55596990061, 94202.41048364765, 99013.17644276339, 80283.28630724983, 86396.77898845423, 84926.92827307324, 82835.72141357916, 111355.6309170283, 97922.4113133444, 55397.703397000245, 94012.35360054417, 105227.56489843904, 101212.16341402095, 88869.53012580039, -187097.78035852677, 0.0, 0.0, 0.0, 196.0, 0.0, 0.0, 0.0, 121.0, 46.0, 212.0, 0.0, 0.0, 0.0, 1.6558068698355932E9, 0.0, 2022-06-21 19:21:09.835
176.0, 94843.79379079268, 89602.89086137901, 98235.80512235226, 101061.69147034783, 80264.95787679647, 86427.17736091344, 86478.47461443837, 83742.41992740869, 110721.82485125362, 94402.74916920057, 48621.41443746263, 87693.31427732877, 105290.73092826974, 101160.9779192183, 88344.71116598978, -187498.9494680106, 0.0, 0.0, 0.0, 196.0, 0.0, 56.0, 0.0, 121.0, 46.0, 220.0, 0.0, 0.0, 0.0, 1.6558068698436587E9, 0.0, 2022-06-21 19:21:09.843
178.0, 95014.89639459806, 89419.47244637877, 94867.53134340422, 99325.96675467095, 80273.85387108968, 86394.00737214177, 85094.78987393259, 82913.95251917273, 111441.79689190352, 98238.57673866472, 55651.37334482352, 94691.71252151877, 105224.50270944867, 101233.26346078677, 89023.42188637519, -187006.76405510475, 0.0, 0.0, 0.0, 196.0, 17.5, 96.0, 0.0, 121.0, 46.0, 228.0, 0.0, 0.0, 0.0, 1.6558068698506465E9, 0.0, 2022-06-21 19:21:09.850
180.0, 94888.0949483031, 89617.50890225278, 97522.73977073906, 100717.74282666956, 80246.04830098728, 86409.45242756039, 86251.89498089493, 83624.06744051784, 110640.06217003611, 94126.25809028842, 48486.14168001911, 87109.59847087842, 105266.9486721693, 101132.18887235987, 88186.55022222403, -187500.02235174447, 0.0, 0.0, 0.0, 196.0, 0.0, 0.0, 0.0, 121.0, 46.0, 236.0, 0.0, 0.0, 0.0, 1.6558068698596475E9, 0.0, 2022-06-21 19:21:09.859
182.0, 94989.46010940793, 89420.27710917917, 95619.10875071392, 99682.29826477746, 80281.4981676934, 86384.57493598163, 85329.41613547994, 83036.97652065475, 111481.1136104004, 98426.64431651168, 55658.07886816012, 95111.16535796707, 105225.84381411599, 101238.20319631138, 89137.43813484171, -186974.376377389, 0.0, 0.0, 0.0, 196.0, 0.0, 0.0, 0.0, 121.0, 46.0, 244.0, 0.0, 0.0, 0.0, 1.6558068698677244E9, 0.0, 2022-06-21 19:21:09.867
184.0, 94894.10756756159, 89603.18143405694, 96728.96226989773, 100327.79429290227, 80239.18631543951, 86411.8440642171, 86014.25123384611, 83497.24364247842, 110592.0506229461, 94002.07179809474, 48599.12974824068, 86791.57785076831, 105253.91760515186, 101116.74381694125, 88079.50771802757, -187500.02235174447, 0.0, 0.0, 0.0, 196.0, 0.0, 0.0, 0.0, 121.0, 46.0, 252.0, 0.0, 0.0, 0.0, 1.655806869875779E9, 0.0, 2022-06-21 19:21:09.875
186.0, 94958.48059159286, 89392.6950565213, 96416.41782717918, 100066.30123451963, 80262.90151630659, 86383.65851445896, 85544.73048981793, 83154.41258602293, 111532.25440171415, 98473.18064846762, 55451.034659270605, 95285.30779901837, 105217.93129657881, 101255.92812966445, 89206.7061909087, -186915.79245517164, 0.0, 0.0, 0.0, 196.0, 0.0, 96.0, 0.0, 121.0, 47.0, 4.0, 0.0, 0.0, 0.0, 1.6558068698826914E9, 0.0, 2022-06-21 19:21:09.882
188.0, 94908.01035261278, 89623.94620465592, 95904.51817566373, 99941.22087254774, 80260.42047267205, 86425.32216612366, 85778.50738507598, 83375.09135903018, 110568.76010522367, 94039.30980435727, 48952.71199377919, 86797.07637990432, 105256.77862844213, 101105.50088948023, 88016.3193364524, -187500.02235174447, 0.0, 0.0, 0.0, 196.0, 17.5, 72.0, 0.0, 121.0, 47.0, 12.0, 0.0, 0.0, 0.0, 1.6558068698916955E9, 0.0, 2022-06-21 19:21:09.891
190.0, 94941.87324546257, 89406.19551017231, 97206.5966971632, 100454.61809094169, 80261.85098431719, 86381.80331966917, 85795.53941435092, 83289.19360508843, 111501.18547692127, 98371.30139724034, 54979.926941386104, 95186.11075712572, 105235.67858167631, 101256.77749595375, 89270.69923528425, -186957.85843823655, 0.0, 0.0, 0.0, 196.0, 0.0, 0.0, 0.0, 121.0, 47.0, 20.0, 0.0, 0.0, 0.0, 1.6558068698997185E9, 0.0, 2022-06-21 19:21:09.899
192.0, 94922.91896616448, 89607.83059690364, 95108.52785212135, 99543.78450438792, 80265.56137389677, 86415.44269507441, 85516.32142261523, 83226.92164503595, 110584.56278855358, 94210.45711165156, 49508.37636093812, 87084.38570313284, 105256.95744239778, 101098.23657253225, 87985.67509480419, -187500.02235174447, 0.0, 0.0, 0.0, 196.0, 0.0, 0.0, 0.0, 121.0, 47.0, 28.0, 0.0, 0.0, 0.0, 1.655806869906771E9, 0.0, 2022-06-21 19:21:09.906
194.0, 94902.64593394351, 89416.27614692166, 97950.75332531374, 100814.61528713886, 80261.15808023907, 86379.67990394591, 86047.64474006233, 83438.9949964279, 111500.44786935423, 98127.82384488867, 54345.58443374449, 94799.1797088599, 105231.20823278525, 101259.92909192195, 89275.68367429778, -186993.75533983175, 0.0, 0.0, 0.0, 196.0, 0.0, 0.0, 0.0, 121.0, 47.0, 36.0, 0.0, 0.0, 0.0, 1.65580686991476E9, 0.0, 2022-06-21 19:21:09.914
196.0, 94959.21819915989, 89562.9929975263, 94391.68505569518, 99189.53170651576, 80253.20085921299, 86410.03357291622, 85250.11214615252, 83077.88021300796, 110631.2108792318, 94533.10454286392, 50272.62720735398, 87652.49999195337, 105230.5376804516, 101100.42704348887, 88003.53413862397, -187480.82220325735, 0.0, 0.0, 0.0, 196.0, 0.0, 96.0, 0.0, 121.0, 47.0, 44.0, 0.0, 0.0, 0.0, 1.655806869923864E9, 0.0, 2022-06-21 19:21:09.923
198.0, 94854.45557289787, 89444.30523446861, 98574.45640259462, 101123.73991295576, 80255.43603365851, 86376.41654925545, 86270.64809449294, 83557.86157344122, 111402.32371119544, 97767.64783473586, 53559.18300857342, 94170.223971632, 105225.35207573797, 101248.44029527191, 89232.83538017696, -187052.13809634902, 0.0, 0.0, 0.0, 196.0, 17.5, 96.0, 0.0, 121.0, 47.0, 52.0, 0.0, 0.0, 0.0, 1.6558068699308455E9, 0.0, 2022-06-21 19:21:09.930
200.0, 94971.51165861031, 89553.09117473259, 93812.81957779164, 98902.2447350317, 80271.73045536643, 86413.11811365106, 85061.59753341645, 82962.79108080758, 110702.75881323325, 94989.8177373192, 51152.63773830387, 88453.98884463178, 105228.66013391735, 101120.78948268766, 88077.00432264857, -187390.45410042454, 0.0, 0.0, 0.0, 196.0, 0.0, 0.0, 0.0, 121.0, 47.0, 60.0, 0.0, 0.0, 0.0, 1.6558068699387677E9, 0.0, 2022-06-21 19:21:09.938
202.0, 94834.16018893245, 89449.40143220442, 99041.29493728817, 101362.88122688308, 80257.47004240395, 86378.7411306788, 86464.43771892044, 83672.90600215268, 111315.59894270885, 97294.461404617, 52640.43690448248, 93307.2231182126, 105241.15475906787, 101245.02047837025, 89166.80832705597, -187149.03290856277, 0.0, 0.0, 0.0, 196.0, 0.0, 0.0, 0.0, 121.0, 47.0, 68.0, 0.0, 0.0, 0.0, 1.6558068699477885E9, 0.0, 2022-06-21 19:21:09.947
204.0, 94943.84019897463, 89523.98920345178, 93411.20343341869, 98682.50473529157, 80255.32427493624, 86399.41649429995, 84872.05474043546, 82848.61837012987, 110797.28434053474, 95515.06138027446, 52077.865848286856, 89414.35389689851, 105215.15968026636, 101117.39201753045, 88171.14987029432, -187336.3181753538, 0.0, 0.0, 0.0, 196.0, 0.0, 0.0, 0.0, 121.0, 47.0, 76.0, 0.0, 0.0, 0.0, 1.6558068699548445E9, 0.0, 2022-06-21 19:21:09.954
206.0, 94787.8697261655, 89448.86499033749, 99329.02894366134, 101508.50284200942, 80246.69650157649, 86379.61284871255, 86582.92431627802, 83754.53457290347, 111188.17164756915, 96732.42679028831, 51710.336114208236, 92279.22168722413, 105230.02359032913, 101224.92626010493, 89033.45781963562, -187161.14755405756, 0.0, 0.0, 0.0, 196.0, 0.0, 88.0, 0.0, 121.0, 47.0, 84.0, 0.0, 0.0, 0.0, 1.655806869962844E9, 0.0, 2022-06-21 19:21:09.962
208.0, 94919.07446611815, 89429.9107110394, 93201.45466345009, 98558.76547798699, 80265.98605704142, 86397.56129951017, 84765.16869845017, 82778.1880233512, 110902.35989121914, 96067.90942763202, 53006.1114437713, 90459.4991158842, 105201.32395044851, 101118.75547394222, 88297.81720612255, -187271.47576468895, 0.0, 0.0, 0.0, 196.0, 17.5, 80.0, 0.0, 121.0, 47.0, 92.0, 0.0, 0.0, 0.0, 1.6558068699709496E9, 0.0, 2022-06-21 19:21:09.970
210.0, 94698.44039659982, 89418.31015566709, 99413.69735165803, 101553.1169239422, 80235.52062934883, 86372.0356073422, 86650.2030670885, 83799.90861414775, 111048.09326506774, 96116.05508518877, 50761.526913824906, 91126.11754251928, 105242.56291896856, 101203.84856508358, 88888.84203300977, -187211.79660699327, 0.0, 0.0, 0.0, 196.0, 0.0, 0.0, 0.0, 121.0, 47.0, 100.0, 0.0, 0.0, 0.0, 1.6558068699798214E9, 0.0, 2022-06-21 19:21:09.979
212.0, 94848.19708445038, 89288.60298259294, 93207.51198619748, 98536.39138178724, 80259.23583021591, 86366.76059565075, 84714.49729377, 82728.56715066041, 110986.0001189709, 96611.63796325184, 53842.290203844335, 91524.31386999058, 105189.45517414274, 101130.15486361443, 88439.7731351582, -187226.3922961226, 0.0, 0.0, 0.0, 196.0, 0.0, 0.0, 0.0, 121.0, 47.0, 108.0, 0.0, 0.0, 0.0, 1.6558068699869184E9, 0.0, 2022-06-21 19:21:09.986
214.0, 94629.57467193302, 89354.76414618065, 99297.60239095717, 101513.19670834503, 80248.81991729974, 86386.78775868271, 86693.40898912061, 83833.6373965308, 110897.7777836058, 95500.51039463407, 49909.70193263316, 89979.49540370649, 105219.56297392404, 101163.25779715274, 88723.21560659596, -187265.82077334175, 0.0, 0.0, 0.0, 196.0, 0.0, 0.0, 0.0, 121.0, 47.0, 116.0, 0.0, 0.0, 0.0, 1.6558068699948921E9, 0.0, 2022-06-21 19:21:09.994
216.0, 94762.5675514421, 89220.05018234852, 93440.59597737742, 98632.36977247833, 80274.05503678978, 86391.83925292961, 84745.00742495149, 82740.279464755, 111080.9726811615, 97134.15469338355, 54558.015413047724, 92569.45908897628, 105181.11797346092, 101148.61740453451, 88607.07594240618, -187187.05322588125, 0.0, 0.0, 0.0, 196.0, 0.0, 88.0, 0.0, 121.0, 47.0, 124.0, 0.0, 0.0, 0.0, 1.6558068700039368E9, 0.0, 2022-06-21 19:21:10.003
218.0, 94573.00240671664, 89326.55624467805, 98987.09195698405, 101363.59648270566, 80235.74414679338, 86382.38446502501, 86628.45481973348, 83800.69092520367, 110748.84811030008, 94935.59240527063, 49198.715293254296, 88915.39590542269, 105224.99444782668, 101130.42308454789, 88547.1509155215, -187353.88664649567, 0.0, 0.0, 0.0, 196.0, 17.5, 96.0, 0.0, 121.0, 47.0, 132.0, 0.0, 0.0, 0.0, 1.6558068700110009E9, 0.0, 2022-06-21 19:21:10.011
220.0, 94754.92325483839, 89185.18146099824, 93873.07988084316, 98815.89994620085, 80263.7955860848, 86371.16388930845, 84839.64471097526, 82775.8857936723, 111189.75862142547, 97586.26342848103, 55113.23274531755, 93499.80574843952, 105166.03054595359, 101138.49206429625, 88755.98326396743, -187138.68405087997, 0.0, 0.0, 0.0, 196.0, 0.0, 0.0, 0.0, 121.0, 47.0, 140.0, 0.0, 0.0, 0.0, 1.655806870018977E9, 0.0, 2022-06-21 19:21:10.018
222.0, 94580.6690550648, 89327.09268654499, 98495.71120687858, 101137.19566311785, 80236.61586482715, 86375.34366552159, 86515.35499278964, 83748.20902922262, 110617.17398371387, 94474.58767587993, 48705.72521754804, 87982.23292615807, 105231.16352929635, 101105.14326156894, 88377.38941638345, -187455.1400488782, 0.0, 0.0, 0.0, 196.0, 0.0, 0.0, 0.0, 121.0, 47.0, 148.0, 0.0, 0.0, 0.0, 1.655806870026952E9, 0.0, 2022-06-21 19:21:10.026
224.0, 94719.09340847653, 89130.6432045273, 94467.47982114313, 99090.4911268343, 80257.7382633374, 86342.06191802764, 84977.64438124232, 82844.19272472772, 111251.87411926677, 97966.48895341027, 55469.65366240188, 94274.003121138, 105165.49410408665, 101166.56585533213, 88907.75160881897, -187037.5424072197, 0.0, 0.0, 0.0, 196.0, 0.0, 0.0, 0.0, 121.0, 47.0, 156.0, 0.0, 0.0, 0.0, 1.6558068700360055E9, 0.0, 2022-06-21 19:21:10.036
226.0, 94613.57082290303, 89353.91477989135, 97853.12090553295, 100833.3460489924, 80227.96573972295, 86381.33393303561, 86332.6741853564, 83650.241333275, 110534.20430829577, 94122.45829373102, 48450.22242667943, 87270.1510513009, 105201.79333708208, 101088.44650846082, 88220.59192902947, -187500.02235174447, 0.0, 0.0, 0.0, 196.0, 0.0, 88.0, 0.0, 121.0, 47.0, 164.0, 0.0, 0.0, 0.0, 1.655806870044004E9, 0.0, 2022-06-21 19:21:10.044
228.0, 94729.68813534835, 89145.97650122363, 95193.75505372943, 99440.25122407095, 80265.6954843635, 86364.74893864978, 85185.56030816559, 82959.25950518364, 111346.46670180163, 98224.80806408025, 55602.110100044025, 94831.50033134226, 105155.48052257068, 101170.00802397824, 89040.27510169448, -186972.4317756214, 0.0, 0.0, 0.0, 196.0, 17.0, 200.0, 0.0, 121.0, 47.0, 172.0, 0.0, 0.0, 0.0, 1.655806870051031E9, 0.0, 2022-06-21 19:21:10.051
230.0, 94600.20447971876, 89368.51046902066, 97108.29372504876, 100490.00090241444, 80243.00846374137, 86407.82075021515, 86141.32090107452, 83572.27844861489, 110469.51835984211, 93950.64043410307, 48464.97457801993, 86844.50678163848, 105205.72724410621, 101075.12486876546, 88105.72631427363, -187500.02235174447, 0.0, 0.0, 0.0, 196.0, 0.0, 0.0, 0.0, 121.0, 47.0, 180.0, 0.0, 0.0, 0.0, 1.655806870058985E9, 0.0, 2022-06-21 19:21:10.058
232.0, 94728.74936208122, 89181.47107141865, 95990.41592960549, 99831.7643799501, 80268.73532160942, 86372.79556665369, 85423.89695929253, 83091.13479746996, 111381.20131268518, 98355.07403076578, 55508.925677409854, 95154.99712884393, 105170.45619135574, 101206.21784999584, 89155.67715831724, -186932.95859491333, 0.0, 0.0, 0.0, 196.0, 0.0, 0.0, 0.0, 121.0, 47.0, 188.0, 0.0, 0.0, 0.0, 1.655806870067084E9, 0.0, 2022-06-21 19:21:10.067
234.0, 94693.61241979747, 89411.53757709713, 96303.56386942434, 100100.90173493644, 80249.22224869994, 86381.71391269135, 85896.16696788871, 83449.27679887734, 110486.14805771685, 93908.39563708255, 48711.20139493959, 86694.10189319872, 105215.67377038882, 101079.01407230069, 88029.30569998095, -187500.02235174447, 0.0, 0.0, 0.0, 196.0, 0.0, 0.0, 0.0, 121.0, 47.0, 196.0, 0.0, 0.0, 0.0, 1.6558068700750675E9, 0.0, 2022-06-21 19:21:10.075
236.0, 94746.18372275637, 89214.66341193479, 96790.31780842756, 100224.37277130756, 80267.3495134532, 86376.95299112237, 85672.44835763554, 83221.80309555568, 111386.3869173988, 98351.34128944174, 55180.6232548503, 95187.13893737066, 105196.54067713508, 101214.66680939995, 89229.23674931965, -186915.121902838, 0.0, 0.0, 0.0, 196.0, 0.0, 88.0, 0.0, 121.0, 47.0, 204.0, 0.0, 0.0, 0.0, 1.6558068700830328E9, 0.0, 2022-06-21 19:21:10.083
238.0, 94770.83769689056, 89427.18379821585, 95476.70578678916, 99704.3817882993, 80250.00455975588, 86398.76829371075, 85628.63893850315, 83285.97495388686, 110470.25596740913, 94035.1970833775, 49171.379109785456, 86834.87317977825, 105201.39100568189, 101067.39116518393, 87976.73439702207, -187500.02235174447, 0.0, 0.0, 0.0, 196.0, 17.5, 96.0, 0.0, 121.0, 47.0, 212.0, 0.0, 0.0, 0.0, 1.655806870091074E9, 0.0, 2022-06-21 19:21:10.091
240.0, 94748.97769081328, 89273.22498240769, 97549.71832629661, 100600.37381653475, 80269.80820534327, 86368.99577009628, 85936.55657011946, 83373.03499854029, 111417.63465614733, 98180.84218273667, 54610.18438460641, 94934.72068723687, 105185.25304618514, 101231.63178344152, 89257.8693339669, -186997.2869154557, 0.0, 0.0, 0.0, 196.0, 0.0, 0.0, 0.0, 121.0, 47.0, 220.0, 0.0, 0.0, 0.0, 1.6558068700990727E9, 0.0, 2022-06-21 19:21:10.099
242.0, 94801.99602866126, 89453.111821784, 94727.02827775816, 99337.47790306543, 80258.945257538, 86396.93545066542, 85390.9057844765, 83158.86058316953, 110508.74567136118, 94305.56378430889, 49837.37168757578, 87274.30847576958, 105204.90022956136, 101080.42223220137, 87981.5176703355, -187500.02235174447, 0.0, 0.0, 0.0, 196.0, 0.0, 0.0, 0.0, 121.0, 47.0, 228.0, 0.0, 0.0, 0.0, 1.6558068701070688E9, 0.0, 2022-06-21 19:21:10.107
244.0, 94756.97961532827, 89305.38914267888, 98230.59716589417, 100949.64217539337, 80268.8470803317, 86368.12405206253, 86164.32084611904, 83502.27278498087, 111354.75919899455, 97899.05374038861, 53907.04320753136, 94439.51778882954, 105201.9274475488, 101226.75910315027, 89245.93350242777, -187036.6930409304, 0.0, 0.0, 0.0, 196.0, 0.0, 0.0, 0.0, 121.0, 47.0, 236.0, 0.0, 0.0, 0.0, 1.6558068701150863E9, 0.0, 2022-06-21 19:21:10.115
246.0, 94850.02992749572, 89459.23619976475, 94085.73437759094, 99022.36300973452, 80261.67217036155, 86398.45536928838, 85158.89467703042, 83031.43328802983, 110598.3091113936, 94715.33831540804, 50651.17635144906, 87967.10079516182, 105206.84483132897, 101076.3095112216, 88026.80230460195, -187458.4034035687, 0.0, 0.0, 0.0, 196.0, 0.0, 88.0, 0.0, 121.0, 47.0, 244.0, 0.0, 0.0, 0.0, 1.6558068701231575E9, 0.0, 2022-06-21 19:21:10.123
248.0, 94788.89790641045, 89364.30834106306, 98794.64343722386, 101235.65509744348, 80270.79168209931, 86370.89566837499, 86381.80331966917, 83622.92750155061, 111291.79433486395, 97502.15381409573, 53079.49222081807, 93708.1687102519, 105217.73013087871, 101225.50740546077, 89200.00066757211, -187124.31187919521, 0.0, 0.0, 0.0, 196.0, 17.5, 96.0, 0.0, 121.0, 47.0, 252.0, 0.0, 0.0, 0.0, 1.6558068701312418E9, 0.0, 2022-06-21 19:21:10.131
250.0, 94928.1045708781, 89465.49468821225, 93590.46442395025, 98770.36944274539, 80273.42918794503, 86399.61766000005, 84959.36065427789, 82898.35100154293, 110704.21167662284, 95203.47806256749, 51570.41419391802, 88865.08212865378, 105217.66307564534, 101109.43479650436, 88116.54455859, -187371.9245042711, 0.0, 0.0, 0.0, 196.0, 0.0, 0.0, 0.0, 121.0, 48.0, 4.0, 0.0, 0.0, 0.0, 1.655806870139206E9, 0.0, 2022-06-21 19:21:10.139
252.0, 94777.72203418279, 89408.31892589557, 99186.93890415895, 101439.45830338697, 80256.15128948109, 86374.60605795456, 86518.5736439912, 83710.36752585978, 111203.41553728767, 96985.5379445002, 52162.780125472564, 92777.50912636628, 105216.25491574466, 101216.45494895637, 89107.28563157149, -187157.23599877788, 0.0, 0.0, 0.0, 196.0, 0.0, 0.0, 0.0, 121.0, 48.0, 12.0, 0.0, 0.0, 0.0, 1.6558068701472404E9, 0.0, 2022-06-21 19:21:10.147
254.0, 94939.99569892832, 89452.08364153907, 93290.39225463776, 98611.3814844348, 80267.7965483423, 86394.63322098652, 84810.52038794999, 82822.86916051737, 110810.18129708545, 95769.71480485378, 52513.61310644307, 89902.94067894705, 105189.16460146483, 101106.88669763645, 88229.6220337894, -187298.0966923352, 0.0, 0.0, 0.0, 196.0, 0.0, 0.0, 0.0, 121.0, 48.0, 20.0, 0.0, 0.0, 0.0, 1.6558068701541953E9, 0.0, 2022-06-21 19:21:10.154
0.0, 94788.98731338828, 89460.5102491987, 99391.07738626926, 101560.09066821226, 80274.45736818998, 86383.74792143678, 86656.0592241358, 83810.033954386, 111101.04454768235, 96440.267138513, 51247.744410961204, 91718.39406709601, 105224.0333228151, 101204.49676567278, 88981.93704866614, -187177.24081006538, 0.0, 0.0, 0.0, 196.0, 0.0, 0.0, 0.0, 121.0, 48.0, 28.0, 0.0, 0.0, 0.0, 1.6558068701633008E9, 0.0, 2022-06-21 19:21:10.163
2.0, 94962.70507129491, 89429.106048239, 93215.69272466812, 98563.6158065338, 80294.97626959995, 86399.93058442243, 84760.25131467001, 82781.00434315257, 110926.56683046423, 96362.3936608307, 53413.1590620469, 90995.91863106712, 105214.5338314216, 101143.87883470999, 88393.72854158028, -187248.945206278, 0.0, 0.0, 0.0, 196.0, 0.0, 0.0, 0.0, 121.0, 48.0, 36.0, 0.0, 0.0, 0.0, 1.6558068701713269E9, 0.0, 2022-06-21 19:21:10.171
4.0, 94813.44012182238, 89504.8784619425, 99399.79456660684, 101576.31803468682, 80267.50597566438, 86385.0443226152, 86698.66164906761, 83828.25062611708, 110972.05263043079, 95871.83992527008, 50385.01177847526, 90617.36948697203, 105240.32774452302, 101199.17705049242, 88836.62835796218, -187222.68190654303, 0.0, 0.0, 0.0, 196.0, 0.0, 0.0, 0.0, 121.0, 48.0, 44.0, 0.0, 0.0, 0.0, 1.655806870178203E9, 0.0, 2022-06-21 19:21:10.178
6.0, 94974.75266155633, 89413.95156549831, 93325.1268655213, 98603.4242634087, 80285.92381309555, 86375.36601726605, 84734.3009393574, 82751.12006081583, 111058.15155007262, 96931.24555721827, 54227.96955442066, 92084.0909581293, 105192.80793581104, 101149.73499175729, 88540.91477881846, -187196.50801378585, 0.0, 0.0, 0.0, 196.0, 0.0, 80.0, 0.0, 121.0, 48.0, 52.0, 0.0, 0.0, 0.0, 1.655806870187226E9, 0.0, 2022-06-21 19:21:10.187
8.0, 94800.8784414385, 89508.85707245555, 99192.05745363921, 101497.55048722631, 80276.44667344651, 86414.1015904071, 86688.87158499617, 83844.9920827141, 110854.72832378488, 95299.56821198085, 49590.34020785573, 89503.98439216429, 105256.73392495322, 101186.39185266399, 88665.36929194562, -187302.4105790151, 0.0, 0.0, 0.0, 196.0, 17.5, 40.0, 0.0, 121.0, 48.0, 60.0, 0.0, 0.0, 0.0, 1.6558068701952348E9, 0.0, 2022-06-21 19:21:10.195
10.0, 94968.76239404231, 89391.35395185399, 93680.85487852752, 98752.01866054758, 80285.99086832892, 86388.59824998358, 84793.7118761196, 82768.97910463561, 111179.20859804256, 97460.53486591994, 54885.51317280688, 93106.16917683711, 105190.68452008779, 101169.85156176705, 88707.81525466625, -187164.7685366593, 0.0, 0.0, 0.0, 196.0, 0.0, 0.0, 0.0, 121.0, 48.0, 68.0, 0.0, 0.0, 0.0, 1.6558068702022336E9, 0.0, 2022-06-21 19:21:10.202
12.0, 94828.66165979645, 89540.6859565599, 98791.42478602228, 101321.37403742959, 80266.76836809736, 86408.67011650445, 86591.28386870431, 83794.09716058936, 110745.24947944278, 94817.35167710205, 49047.7292594587, 88527.61549086757, 105239.9924683562, 101176.15475370345, 88489.39400784898, -187383.45800441003, 0.0, 0.0, 0.0, 196.0, 0.0, 0.0, 0.0, 121.0, 48.0, 76.0, 0.0, 0.0, 0.0, 1.65580687021026E9, 0.0, 2022-06-21 19:21:10.210
14.0, 94981.92757152648, 89387.26358261867, 94192.66512306513, 99000.72652110178, 80295.11038006669, 86388.86647091706, 84916.49000841261, 82834.87204728986, 111257.50675886951, 97900.05956888909, 55355.88328312436, 93980.18944027298, 105198.59703762496, 101196.18191673541, 88867.31730309932, -187070.51123029127, 0.0, 0.0, 0.0, 196.0, 0.0, 0.0, 0.0, 121.0, 48.0, 84.0, 0.0, 0.0, 0.0, 1.6558068702193215E9, 0.0, 2022-06-21 19:21:10.219
16.0, 94818.20104339135, 89563.75295683778, 98224.5845466357, 101065.15599073839, 80270.32229546575, 86415.12977065203, 86462.60487587511, 83746.55500013292, 110656.55775744413, 94424.81034097796, 48677.047929411885, 87721.8574549982, 105246.63093645942, 101150.29378536866, 88338.16210486437, -187499.5529651109, 0.0, 0.0, 0.0, 196.0, 0.0, 64.0, 0.0, 121.0, 48.0, 92.0, 0.0, 0.0, 0.0, 1.655806870227294E9, 0.0, 2022-06-21 19:21:10.227
18.0, 94968.0694899642, 89344.6388059424, 94848.06297398364, 99307.92889689552, 80283.86745260567, 86387.27949706072, 85078.92013536932, 82915.38303081787, 111347.13725413529, 98212.89458428558, 55592.051815039136, 94654.47451525624, 105193.7243573337, 101222.66873391495, 89012.82715950337, -187022.90201460148, 0.0, 0.0, 0.0, 196.0, 17.0, 144.0, 0.0, 121.0, 48.0, 100.0, 0.0, 0.0, 0.0, 1.655806870234314E9, 0.0, 2022-06-21 19:21:10.234
20.0, 94827.56642431814, 89573.40891044246, 97521.30925909392, 100721.38616101578, 80264.30967620727, 86405.45146530289, 86253.01256811769, 83625.56500739635, 110572.47049480326, 94141.88195966267, 48526.77715143885, 87126.29522398654, 105240.46185498976, 101126.91386066841, 88185.38793151235, -187500.02235174447, 0.0, 0.0, 0.0, 196.0, 0.0, 0.0, 0.0, 121.0, 48.0, 108.0, 0.0, 0.0, 0.0, 1.6558068702433155E9, 0.0, 2022-06-21 19:21:10.243
22.0, 94935.27948084826, 89364.08482361851, 95598.50044232613, 99667.74727913705, 80277.72072288046, 86363.72075840483, 85298.05663800915, 83025.66653796037, 111408.96217929867, 98409.41112153663, 55624.81947241062, 95094.73682579242, 105193.43378465579, 101224.9933153383, 89124.00473642406, -186954.5280283127, 0.0, 0.0, 0.0, 196.0, 0.0, 0.0, 0.0, 121.0, 48.0, 116.0, 0.0, 0.0, 0.0, 1.6558068702513404E9, 0.0, 2022-06-21 19:21:10.251
24.0, 94896.40979724049, 89567.1951254839, 96743.08857239349, 100353.14117111459, 80275.50790017938, 86424.45044808989, 86040.91686498128, 83521.3164712568, 110499.62615962341, 94033.16307463206, 48641.12867607221, 86829.17348494215, 105240.28304103411, 101134.15582587193, 88089.70011349919, -187500.02235174447, 0.0, 0.0, 0.0, 196.0, 0.0, 0.0, 0.0, 121.0, 48.0, 124.0, 0.0, 0.0, 0.0, 1.6558068702583668E9, 0.0, 2022-06-21 19:21:10.258
26.0, 94929.42332380096, 89354.85355315848, 96404.88432704024, 100067.01649034221, 80297.01027834539, 86384.21730807035, 85563.52830690483, 83166.46017628434, 111438.73470291313, 98467.5927123538, 55411.337961117984, 95281.01626408295, 105210.2869999751, 101254.96700465286, 89230.53315049806, -186926.54364425465, 0.0, 0.0, 0.0, 196.0, 0.0, 72.0, 0.0, 121.0, 48.0, 132.0, 0.0, 0.0, 0.0, 1.655806870266424E9, 0.0, 2022-06-21 19:21:10.266
28.0, 94880.04832029919, 89572.80541334217, 95936.07883883463, 99954.96719538776, 80269.96466755446, 86405.63027925853, 85781.7930915109, 83372.56561190673, 110512.70193012977, 94056.76651677687, 48990.53114539757, 86823.3396796393, 105240.90888987886, 101100.67291267788, 88025.34944121235, -187500.02235174447, 0.0, 0.0, 0.0, 196.0, 17.0, 120.0, 0.0, 121.0, 48.0, 140.0, 0.0, 0.0, 0.0, 1.6558068702754583E9, 0.0, 2022-06-21 19:21:10.275
30.0, 94907.20568981238, 89395.22080364476, 97186.12249924213, 100457.83674214325, 80295.82563588925, 86385.64781971548, 85822.09328676383, 83314.40637283401, 111443.22740354865, 98372.77661237438, 54983.145592587665, 95176.03012037637, 105220.88172684691, 101265.36056582458, 89280.15402318884, -186932.46685653532, 0.0, 0.0, 0.0, 196.0, 0.0, 0.0, 0.0, 121.0, 48.0, 148.0, 0.0, 0.0, 0.0, 1.6558068702833989E9, 0.0, 2022-06-21 19:21:10.283
32.0, 94915.60994572758, 89575.21940174335, 95136.62399490166, 99564.66103370918, 80278.79360661432, 86409.7430002383, 85531.61001582266, 83245.0936132781, 110533.51140421766, 94252.65720518318, 49552.23048355943, 87099.1602062178, 105224.34624723748, 101096.69430216483, 88001.54483336746, -187500.02235174447, 0.0, 0.0, 0.0, 196.0, 0.0, 0.0, 0.0, 121.0, 48.0, 156.0, 0.0, 0.0, 0.0, 1.6558068702904253E9, 0.0, 2022-06-21 19:21:10.290
