Sample Index, EXG Channel 0, EXG Channel 1, EXG Channel 2, EXG Channel 3, EXG Channel 4, EXG Channel 5, EXG Channel 6, EXG Channel 7, EXG Channel 8, EXG Channel 9, EXG Channel 10, EXG Channel 11, EXG Channel 12, EXG Channel 13, EXG Channel 14, EXG Channel 15, Accel Channel 0, Accel Channel 1, Accel Channel 2, Other, Other, Other, Other, Other, Other, Other, Analog Channel 0, Analog Channel 1, Analog Channel 2, Timestamp, Other, Timestamp (Formatted)
0.0, 48204.733217326786, 45775.99266481312, 48239.95956658835, 50384.92237149744, 40492.64377267883, 43705.59527940694, 42867.226048377284, 41780.84186087154, 57101.889801250676, 49125.53568190762, 27961.942906611315, 47208.471263464846, 52561.82581923316, 51030.328992644434, 44503.038466338934, -93626.40602903439, 0.0, 0.0, 0.0, 196.0, 0.0, 0.0, 0.0, 123.0, 8.5, 121.5, 0.0, 0.0, 0.0, 1.655806991220765E9, 0.0, 2022-06-21 19:23:11.220
2.0, 96386.37708263125, 91331.21714964118, 99315.75200745488, 101929.8555767364, 80988.14856864793, 87375.13719500747, 86174.26737240165, 83665.97696137155, 113947.85212848808, 98524.18732931463, 52928.70735272257, 93767.46788829182, 107940.3290677463, 105846.66351636214, 89404.98851597172, -187500.02235174447, 0.0, 0.0, 0.0, 196.0, 0.0, 0.0, 0.0, 123.0, 9.0, 6.0, 0.0, 0.0, 0.0, 1.6558069912267945E9, 0.0, 2022-06-21 19:23:11.226
4.0, 96587.14045132881, 91478.67160781284, 93305.30086818944, 99406.90242134362, 81054.62265665802, 87486.98532426183, 84730.0988113998, 82884.33645776946, 113303.63014979723, 95980.15647890049, 51305.32250467807, 88818.47874146447, 108053.02656328995, 105833.18541445558, 88473.90424894146, -187500.02235174447, 0.0, 0.0, 0.0, 196.0, 0.0, 0.0, 0.0, 123.0, 9.0, 14.0, 0.0, 0.0, 0.0, 1.6558069912347093E9, 0.0, 2022-06-21 19:23:11.234
6.0, 96369.5462190564, 91354.57472259698, 99770.40884142029, 102121.83470986303, 80985.8686907135, 87376.61241014152, 86341.01138603824, 83784.73177966259, 113866.35766820404, 97925.24998489022, 51791.38353960318, 92720.91450940544, 107971.733268706, 105852.09499026478, 89319.71661087473, -187500.02235174447, 0.0, 0.0, 0.0, 196.0, 0.0, 72.0, 0.0, 123.0, 9.0, 22.0, 0.0, 0.0, 0.0, 1.6558069912427773E9, 0.0, 2022-06-21 19:23:11.242
8.0, 96600.48444276863, 91478.89512525739, 93007.5085768114, 99280.30214074877, 81077.06380809114, 87499.07761801215, 84633.15929569713, 82795.46592181515, 113457.29839292746, 96638.81768450949, 52471.01068151125, 89979.27188626194, 108054.0547435349, 105835.48764413448, 88595.31892482268, -187500.02235174447, 0.0, 0.0, 0.0, 196.0, 17.5, 96.0, 0.0, 123.0, 9.0, 30.0, 0.0, 0.0, 0.0, 1.6558069912517705E9, 0.0, 2022-06-21 19:23:11.251
10.0, 96306.5813549258, 91377.68642636377, 99987.24311438121, 102200.84812651254, 80973.84345219654, 87369.61631412701, 86423.66813703396, 83852.16699268424, 113766.26655653317, 97247.81331393878, 50624.3989615916, 91549.0572511026, 107994.6438067727, 105857.81703684534, 89208.71784790968, -187500.02235174447, 0.0, 0.0, 0.0, 196.0, 0.0, 0.0, 0.0, 123.0, 9.0, 38.0, 0.0, 0.0, 0.0, 1.6558069912577832E9, 0.0, 2022-06-21 19:23:11.257
12.0, 96587.00634086208, 91440.60658700546, 92949.30463424977, 99234.86104427112, 81073.12990106702, 87486.24771669481, 84565.12058557518, 82726.35432795934, 113575.04738271802, 97308.83357630177, 53556.63490970551, 91176.87835417729, 108021.42119663015, 105837.74517032447, 88711.52564424583, -187500.02235174447, 0.0, 0.0, 0.0, 196.0, 0.0, 0.0, 0.0, 123.0, 9.0, 46.0, 0.0, 0.0, 0.0, 1.6558069912667944E9, 0.0, 2022-06-21 19:23:11.266
14.0, 96297.14891876566, 91393.3773509714, 99984.91853295786, 102186.58771355006, 80961.61704797948, 87352.65134008543, 86445.9528262559, 83882.00657153208, 113624.84706936445, 96562.15120102778, 49554.532713238325, 90303.46158784171, 108016.45910936108, 105853.480798421, 89060.19050600416, -187500.02235174447, 0.0, 0.0, 0.0, 196.0, 0.0, 0.0, 0.0, 123.0, 9.0, 54.0, 0.0, 0.0, 0.0, 1.6558069912737796E9, 0.0, 2022-06-21 19:23:11.273
16.0, 96612.21910860766, 91422.99341237466, 93137.86395047474, 99303.01151311536, 81077.06380809114, 87478.6034200911, 84562.19250705153, 82701.99092650306, 113709.91780876134, 97965.86310456552, 54552.360421700534, 92356.2457986171, 108009.50771683548, 105813.0241409569, 88843.53504699888, -187500.02235174447, 0.0, 0.0, 0.0, 196.0, 0.0, 96.0, 0.0, 123.0, 9.0, 62.0, 0.0, 0.0, 0.0, 1.655806991281816E9, 0.0, 2022-06-21 19:23:11.281
18.0, 96309.71059914955, 91404.26265052112, 99748.41472487626, 102087.12245072395, 80967.8084811936, 87357.92635177688, 86414.68273576292, 83890.5002344251, 113518.22924831264, 95905.97103905333, 48623.26963225241, 89110.41487579524, 108052.31130746739, 105867.58474917231, 88914.56889087784, -187500.02235174447, 0.0, 0.0, 0.0, 196.0, 17.5, 80.0, 0.0, 123.0, 9.0, 70.0, 0.0, 0.0, 0.0, 1.655806991290837E9, 0.0, 2022-06-21 19:23:11.290
20.0, 96580.43492799222, 91392.66209514881, 93557.74147006769, 99480.99845421297, 81080.46127324835, 87474.31188515566, 84639.39543240017, 82726.8237145929, 113848.9680110178, 98558.31844309789, 55345.199149274726, 93458.25385549711, 107991.11223114876, 105822.90361200615, 88994.4093220722, -187500.02235174447, 0.0, 0.0, 0.0, 196.0, 0.0, 0.0, 0.0, 123.0, 9.0, 78.0, 0.0, 0.0, 0.0, 1.6558069912989104E9, 0.0, 2022-06-21 19:23:11.298
22.0, 96280.56392437982, 91447.60268301997, 99285.55480069575, 101892.5505152405, 80971.18359460635, 87364.81068906913, 86317.29618517116, 83849.95416998318, 113401.44138353365, 95321.4505698026, 47892.456995541696, 88046.36008100034, 108084.78839216095, 105860.20867350206, 88771.94240950853, -187500.02235174447, 0.0, 0.0, 0.0, 196.0, 0.0, 0.0, 0.0, 123.0, 9.0, 86.0, 0.0, 0.0, 0.0, 1.6558069913059056E9, 0.0, 2022-06-21 19:23:11.305
24.0, 96566.4427359632, 91357.97218775419, 94195.19087018858, 99741.48568409511, 81079.96953487034, 87468.67924555294, 84782.02191376948, 82807.58056730992, 113974.09307647862, 99055.75651595075, 55884.05500460327, 94378.83280263339, 107991.2463416155, 105831.24081268797, 89134.46535282915, -187500.02235174447, 0.0, 0.0, 0.0, 196.0, 0.0, 0.0, 0.0, 123.0, 9.0, 94.0, 0.0, 0.0, 0.0, 1.6558069913139317E9, 0.0, 2022-06-21 19:23:11.313
26.0, 96322.87577663372, 91474.51418334416, 98640.41640048224, 101622.76495966494, 80987.05333316962, 87377.14885200845, 86188.68424757532, 83783.12245406181, 113304.94890272009, 94866.86079107056, 47461.87299035466, 87200.99475395617, 108119.67946525569, 105862.39914445867, 88636.55789334273, -187500.02235174447, 0.0, 0.0, 0.0, 196.0, 0.0, 80.0, 0.0, 123.0, 9.0, 102.0, 0.0, 0.0, 0.0, 1.6558069913228643E9, 0.0, 2022-06-21 19:23:11.322
28.0, 96542.034631018, 91360.63204534436, 94981.21231570392, 100066.83767638657, 81069.82184288763, 87456.29637912469, 84958.31012228849, 82904.45302777924, 114063.5224060443, 99421.94514536204, 56164.122362628266, 95098.6483810721, 107974.99662339648, 105833.78891155588, 89264.44074683676, -187500.02235174447, 0.0, 0.0, 0.0, 196.0, 17.5, 56.0, 0.0, 123.0, 9.0, 110.0, 0.0, 0.0, 0.0, 1.6558069913299696E9, 0.0, 2022-06-21 19:23:11.329
30.0, 96333.80577967236, 91482.82903228153, 97843.28613797262, 101277.54226655273, 80983.18648137886, 87380.70277937685, 85977.61672468386, 83661.1936880581, 113223.96853255852, 94565.42516534629, 47310.43992166995, 86615.82608411624, 108121.75817749003, 105867.62945266122, 88513.01980173825, -187500.02235174447, 0.0, 0.0, 0.0, 196.0, 0.0, 0.0, 0.0, 123.0, 9.0, 118.0, 0.0, 0.0, 0.0, 1.6558069913380492E9, 0.0, 2022-06-21 19:23:11.338
32.0, 96513.62556381531, 91327.19383563922, 95875.81853578312, 100438.32366923377, 81052.11926127902, 87431.59770150158, 85179.52533716266, 83018.06694484556, 114126.15199400808, 99632.85620604233, 56167.22925510756, 95533.81449387247, 107967.21821632603, 105827.01633298592, 89359.7932886831, -187500.02235174447, 0.0, 0.0, 0.0, 196.0, 0.0, 0.0, 0.0, 123.0, 9.0, 126.0, 0.0, 0.0, 0.0, 1.6558069913468964E9, 0.0, 2022-06-21 19:23:11.346
34.0, 96375.26826563696, 91493.58022136454, 96958.87231336502, 100898.70254977973, 80987.67918201437, 87397.7795121407, 85743.39279453669, 83529.78778240536, 113184.24948266143, 94442.22234990864, 47504.98950540895, 86339.89379881546, 108135.50450033003, 105869.52935093992, 88424.14926578394, -187500.02235174447, 0.0, 0.0, 0.0, 196.0, 0.0, 0.0, 0.0, 123.0, 9.0, 134.0, 0.0, 0.0, 0.0, 1.6558069913549507E9, 0.0, 2022-06-21 19:23:11.354
36.0, 96461.52364748999, 91330.97128045217, 96808.04274178062, 100824.62886865484, 81046.24075248728, 87418.29841355067, 85425.77450582678, 83165.2308303393, 114163.1441310816, 99678.72198566461, 55901.82464144524, 95661.7335273902, 107963.97721338001, 105837.29813543537, 89427.04968774911, -187500.02235174447, 0.0, 0.0, 0.0, 196.0, 0.0, 96.0, 0.0, 123.0, 9.0, 142.0, 0.0, 0.0, 0.0, 1.655806991362044E9, 0.0, 2022-06-21 19:23:11.362
38.0, 96413.33328644435, 91515.84255884202, 96024.34587768864, 100509.31280962382, 81011.30497590364, 87413.24691930377, 85493.99202990437, 83374.21964099642, 113180.5167413374, 94505.34367625043, 47987.60837168794, 86363.65370317147, 108153.38589589429, 105862.26503399195, 88374.99777972672, -187500.02235174447, 0.0, 0.0, 0.0, 196.0, 17.5, 64.0, 0.0, 123.0, 9.0, 150.0, 0.0, 0.0, 0.0, 1.6558069913700187E9, 0.0, 2022-06-21 19:23:11.370
40.0, 96432.64519365373, 91328.80316124001, 97705.97937178366, 101201.12165226003, 81018.39047889596, 87400.37231449751, 85643.25697937692, 83315.32279435669, 114177.2480818329, 99541.32581249785, 55303.535497610035, 95451.9847574216, 107979.15404786516, 105852.40791468715, 89468.35571150252, -187500.02235174447, 0.0, 0.0, 0.0, 196.0, 0.0, 0.0, 0.0, 123.0, 9.0, 158.0, 0.0, 0.0, 0.0, 1.6558069913790574E9, 0.0, 2022-06-21 19:23:11.379
42.0, 96462.39536552374, 91511.3498582065, 95125.6492883741, 100125.84628174857, 81020.71506031931, 87425.54037875419, 85238.17631461339, 83213.95763325186, 113197.54877061234, 94740.70754536481, 48695.33165637632, 86706.77533230488, 108157.0739337294, 105858.80051360137, 88353.27188411617, -187500.02235174447, 0.0, 0.0, 0.0, 196.0, 0.0, 0.0, 0.0, 123.0, 9.0, 166.0, 0.0, 0.0, 0.0, 1.6558069913881974E9, 0.0, 2022-06-21 19:23:11.388
44.0, 96411.36633293227, 91314.40863781079, 98540.92878591166, 101543.95270871553, 81013.56250209361, 87380.68042763238, 85892.9706684316, 83468.18637468653, 114155.65629668908, 99236.11274196062, 54471.84943817252, 94962.25803640581, 107984.92079793464, 105839.75682732544, 89470.5685342036, -187500.02235174447, 0.0, 0.0, 0.0, 196.0, 0.0, 0.0, 0.0, 123.0, 9.0, 174.0, 0.0, 0.0, 0.0, 1.6558069913941524E9, 0.0, 2022-06-21 19:23:11.394
46.0, 96489.99976992606, 91496.28478244362, 94354.96113955512, 99797.02976906655, 81047.33598796559, 87446.61807377555, 85022.19140794175, 83075.17565192886, 113266.95093714607, 95134.2547099894, 49638.843493323744, 87385.84368060157, 108149.20611968114, 105853.95018505456, 88381.88211701896, -187500.02235174447, 0.0, 0.0, 0.0, 196.0, 0.0, 72.0, 0.0, 123.0, 9.0, 182.0, 0.0, 0.0, 0.0, 1.6558069914020915E9, 0.0, 2022-06-21 19:23:11.402
48.0, 96348.78144845742, 91322.2541001146, 99261.66078587304, 101844.42720942822, 80998.36331586402, 87365.1683169804, 86090.38127546088, 83603.28031817441, 114095.70891805994, 98801.95245766074, 53494.89939151995, 94249.86323712626, 108000.92464696463, 105852.92200480963, 89438.87376056597, -187500.02235174447, 0.0, 0.0, 0.0, 196.0, 17.5, 48.0, 0.0, 123.0, 9.0, 190.0, 0.0, 0.0, 0.0, 1.655806991411062E9, 0.0, 2022-06-21 19:23:11.411
50.0, 96510.54102308048, 91472.74839553218, 93728.59820468405, 99530.82049260385, 81050.91226707844, 87460.92319022694, 84803.79251286895, 82933.19737114875, 113355.48619693353, 95676.82095489753, 50746.1265618952, 88314.75982841967, 108133.47049158461, 105848.0269727739, 88440.68955668087, -187500.02235174447, 0.0, 0.0, 0.0, 196.0, 0.0, 0.0, 0.0, 123.0, 9.0, 198.0, 0.0, 0.0, 0.0, 1.655806991418035E9, 0.0, 2022-06-21 19:23:11.418
52.0, 96312.4375119731, 91337.52034157758, 99792.93939983123, 102066.87177024744, 80985.75693199121, 87361.90496228993, 86266.5130217687, 83730.19352319164, 113996.33306221165, 98239.51551193185, 52373.33355824156, 93279.08227194336, 108021.15297569669, 105869.52935093992, 89367.61639924246, -187500.02235174447, 0.0, 0.0, 0.0, 196.0, 0.0, 0.0, 0.0, 123.0, 9.0, 206.0, 0.0, 0.0, 0.0, 1.655806991426211E9, 0.0, 2022-06-21 19:23:11.426
54.0, 96549.81303808845, 91472.3907676209, 93303.8703565443, 99356.18631317453, 81074.9850958568, 87487.83469055113, 84685.79765388939, 82844.14802123881, 113449.38587539029, 96316.0361428304, 51919.97312545456, 89425.66387959289, 108124.19451763565, 105872.07744980782, 88532.93520604793, -187500.02235174447, 0.0, 0.0, 0.0, 196.0, 0.0, 0.0, 0.0, 123.0, 9.0, 214.0, 0.0, 0.0, 0.0, 1.655806991435121E9, 0.0, 2022-06-21 19:23:11.435
56.0, 96307.27425900391, 91372.25495246112, 100119.8336624901, 102209.23003068329, 80992.10482741652, 87359.35686342203, 86401.67402048994, 83837.28073087701, 113898.67829068641, 97592.43250995071, 51192.17797424531, 92153.02373802946, 108051.1043132668, 105893.13279308472, 89271.66036029582, -187500.02235174447, 0.0, 0.0, 0.0, 196.0, 0.0, 88.0, 0.0, 123.0, 9.0, 222.0, 0.0, 0.0, 0.0, 1.655806991442057E9, 0.0, 2022-06-21 19:23:11.442
58.0, 96571.27071276554, 91456.72219475773, 93134.95822369555, 99273.68602438999, 81085.71393319535, 87481.73266431483, 84598.51409179141, 82762.3853400213, 113594.29223469405, 96987.81782243465, 53041.87423489979, 90624.90202485348, 108108.97297966159, 105856.47593217801, 88658.66376860903, -187500.02235174447, 0.0, 0.0, 0.0, 196.0, 17.5, 40.0, 0.0, 123.0, 9.0, 230.0, 0.0, 0.0, 0.0, 1.6558069914501193E9, 0.0, 2022-06-21 19:23:11.450
60.0, 96287.60472388324, 91394.8749178499, 100221.64585848401, 102241.0812665321, 80979.67725749937, 87346.4152033824, 86449.52910536875, 83883.14651049931, 113772.36858276947, 96904.17759468289, 50075.28365555807, 90946.38716535416, 108073.25489202201, 105884.75088891399, 89137.46048658616, -187500.02235174447, 0.0, 0.0, 0.0, 196.0, 0.0, 0.0, 0.0, 123.0, 9.0, 238.0, 0.0, 0.0, 0.0, 1.6558069914602048E9, 0.0, 2022-06-21 19:23:11.460
62.0, 96586.89458213981, 91437.34323231498, 93201.18644251663, 99300.55282122527, 81088.50790125226, 87481.88912652602, 84569.83680365524, 82725.90729307024, 113713.85171578548, 97658.39250783832, 54098.016512157505, 91836.79125747576, 108097.32772080037, 105856.72180136704, 88791.16490974008, -187500.02235174447, 0.0, 0.0, 0.0, 196.0, 0.0, 0.0, 0.0, 123.0, 9.0, 246.0, 0.0, 0.0, 0.0, 1.6558069914671113E9, 0.0, 2022-06-21 19:23:11.467
64.0, 96266.03529048388, 91405.31318251052, 100095.96199941183, 102185.6712920274, 80964.36631254748, 87345.94581674885, 86439.69433780841, 83902.7042868977, 113636.69349392576, 96224.57280451928, 49040.353183788444, 89725.98191809439, 108098.19943883413, 105889.33299652732, 88994.07404590536, -187500.02235174447, 0.0, 0.0, 0.0, 196.0, 0.0, 0.0, 0.0, 123.0, 9.5, 126.0, 0.0, 0.0, 0.0, 1.655806991474136E9, 0.0, 2022-06-21 19:23:11.474
66.0, 96570.22018077614, 91406.96721160022, 93521.10696090544, 99425.92375587509, 81089.37961928602, 87477.5528881017, 84616.84252224475, 82735.78676411949, 113857.28285995519, 98300.4016638281, 54999.7305869735, 92993.40462606009, 108061.96726107207, 105848.47400766303, 88935.02073705444, -187500.02235174447, 0.0, 0.0, 0.0, 196.0, 0.0, 104.0, 0.0, 123.0, 10.0, 6.0, 0.0, 0.0, 0.0, 1.6558069914822323E9, 0.0, 2022-06-21 19:23:11.482
68.0, 96270.1703632081, 91432.89523516837, 99735.85304449238, 102033.41120879784, 80967.56261200459, 87344.42589812588, 86371.1862410529, 83878.00560927458, 113513.15540232128, 95599.90860222682, 48223.39692394697, 88592.34614281013, 108125.89325021426, 105898.74308094301, 88851.17934360259, -187500.02235174447, 0.0, 0.0, 0.0, 196.0, 17.0, 144.0, 0.0, 123.0, 10.0, 14.0, 0.0, 0.0, 0.0, 1.6558069914922166E9, 0.0, 2022-06-21 19:23:11.492
70.0, 96549.63422413281, 91389.57755441399, 94051.71502252997, 99649.97764229508, 81094.27465132173, 87476.25648692329, 84724.17559911915, 82789.76622697905, 113963.65481181799, 98841.49269360218, 55677.480182347324, 94015.8404726792, 108037.15682472668, 105858.55464441236, 89075.59085793387, -187500.02235174447, 0.0, 0.0, 0.0, 196.0, 0.0, 0.0, 0.0, 123.0, 10.0, 22.0, 0.0, 0.0, 0.0, 1.6558069914982774E9, 0.0, 2022-06-21 19:23:11.498
72.0, 96280.92155229111, 91475.40825312237, 99171.78442141824, 101804.23877289759, 80988.90852795941, 87374.2207734848, 86282.0698359096, 83847.33901588191, 113385.48223799256, 95073.48031681542, 47623.163178344155, 87620.82757006021, 108154.01174473904, 105901.78291818892, 88717.27004257085, -187500.02235174447, 0.0, 0.0, 0.0, 196.0, 0.0, 0.0, 0.0, 123.0, 10.0, 30.0, 0.0, 0.0, 0.0, 1.6558069915063229E9, 0.0, 2022-06-21 19:23:11.506
74.0, 96529.3835436563, 91355.84877203093, 94768.24489453375, 99943.6348609489, 81080.2377558038, 87460.85613499358, 84880.14607192828, 82865.2033645157, 114064.48353105588, 99281.10680354915, 56085.734794823504, 94827.07468594011, 108029.49017637852, 105861.236853747, 89214.32813576797, -187500.02235174447, 0.0, 0.0, 0.0, 196.0, 0.0, 0.0, 0.0, 123.0, 10.0, 38.0, 0.0, 0.0, 0.0, 1.655806991514295E9, 0.0, 2022-06-21 19:23:11.514
76.0, 96304.05560780235, 91473.91068624386, 98426.75607523395, 101481.65839691859, 80979.99018192175, 87376.3218374636, 86072.45517640772, 83741.34704367483, 113294.62239678174, 94703.20131816881, 47336.30089000474, 86894.32882002936, 108168.45097165716, 105889.71297618306, 88572.31897977818, -187500.02235174447, 0.0, 0.0, 0.0, 196.0, 0.0, 88.0, 0.0, 123.0, 10.0, 46.0, 0.0, 0.0, 0.0, 1.655806991522311E9, 0.0, 2022-06-21 19:23:11.522
78.0, 96506.29419163396, 91343.04122245804, 95617.78999779106, 100296.16657449801, 81069.95595335437, 87446.90864645346, 85082.71993192672, 82986.2380607412, 114137.439624958, 99567.9020366552, 56224.22620346859, 95404.39789347624, 108017.3978826282, 105855.02306878842, 89314.7321718612, -187500.02235174447, 0.0, 0.0, 0.0, 196.0, 17.0, 160.0, 0.0, 123.0, 10.0, 54.0, 0.0, 0.0, 0.0, 1.6558069915293796E9, 0.0, 2022-06-21 19:23:11.529
80.0, 96322.56285221134, 91493.71433183126, 97574.88639055329, 101122.33175305507, 80997.42454259688, 87385.24018350127, 85869.83661292036, 83618.0324695149, 113229.6235239057, 94496.49238544612, 47376.75754746885, 86482.8108528627, 108191.92030333524, 105890.83056340582, 88471.80318496266, -187500.02235174447, 0.0, 0.0, 0.0, 196.0, 0.0, 0.0, 0.0, 123.0, 10.0, 62.0, 0.0, 0.0, 0.0, 1.6558069915383596E9, 0.0, 2022-06-21 19:23:11.538
82.0, 96445.7209641601, 91340.15784742331, 96538.07837224941, 100676.39209942725, 81070.04536033218, 87429.27312007823, 85329.88552211352, 83120.99672806225, 114179.79618070081, 99690.14372708127, 56066.936977736594, 95671.12126006142, 108031.23361244603, 105862.01916480294, 89412.54340559762, -187500.02235174447, 0.0, 0.0, 0.0, 196.0, 0.0, 0.0, 0.0, 123.0, 10.0, 70.0, 0.0, 0.0, 0.0, 1.655806991546318E9, 0.0, 2022-06-21 19:23:11.546
84.0, 96354.34703282679, 91514.23323324123, 96652.74282130515, 100729.9692308866, 81012.57902533759, 87401.04286683118, 85628.97421466997, 83468.18637468653, 113199.35926191323, 94456.3486524044, 47703.74121710554, 86337.21158948084, 108197.57529468242, 105904.1969065901, 88404.65854461891, -187500.02235174447, 0.0, 0.0, 0.0, 196.0, 0.0, 0.0, 0.0, 123.0, 10.0, 78.0, 0.0, 0.0, 0.0, 1.6558069915533423E9, 0.0, 2022-06-21 19:23:11.553
86.0, 96428.42071395168, 91337.52034157758, 97458.27733972995, 101057.37758366796, 81041.03279602919, 87403.30039302116, 85539.92486476003, 83252.38028197055, 114211.17802991606, 99641.70749684662, 55610.96139084833, 95609.40809362032, 108025.82449028785, 105868.74703988398, 89459.72793814278, -187500.02235174447, 0.0, 0.0, 0.0, 196.0, 0.0, 88.0, 0.0, 123.0, 10.0, 86.0, 0.0, 0.0, 0.0, 1.6558069915623522E9, 0.0, 2022-06-21 19:23:11.562
88.0, 96444.44691472614, 91525.31969849106, 95739.85287426149, 100348.40260129007, 81033.74612733677, 87429.76485845624, 85383.93204020645, 83325.44813459495, 113215.56427664332, 94612.98967754719, 48308.758236021786, 86518.41718178001, 108196.1894865262, 105896.01616811946, 88363.9560179658, -187500.02235174447, 0.0, 0.0, 0.0, 196.0, 17.0, 168.0, 0.0, 123.0, 10.0, 94.0, 0.0, 0.0, 0.0, 1.6558069915703163E9, 0.0, 2022-06-21 19:23:11.570
90.0, 96408.23708870854, 91333.92171072027, 98348.94965278503, 101435.32323066273, 81049.25823798875, 87399.83587263059, 85815.76774308298, 83426.45566778847, 114201.83500073374, 99432.98690712296, 54908.44606261803, 95260.09503127278, 108029.28901067842, 105888.72949942703, 89495.6695432269, -187500.02235174447, 0.0, 0.0, 0.0, 196.0, 0.0, 0.0, 0.0, 123.0, 10.0, 102.0, 0.0, 0.0, 0.0, 1.6558069915783832E9, 0.0, 2022-06-21 19:23:11.578
92.0, 96432.84635935383, 91512.66861112937, 94897.63914318552, 99998.48604184223, 81056.85783110355, 87445.5451900417, 85146.60121758, 83166.79545245117, 113254.92569862911, 94948.73523101035, 49146.278100762145, 87057.295388853, 108200.5927801839, 105910.18717410413, 88384.85489903152, -187500.02235174447, 0.0, 0.0, 0.0, 196.0, 0.0, 0.0, 0.0, 123.0, 10.0, 110.0, 0.0, 0.0, 0.0, 1.6558069915854435E9, 0.0, 2022-06-21 19:23:11.585
94.0, 96345.4957420225, 91330.6583560298, 99128.24322321931, 101758.39534501974, 81028.53817087867, 87377.48412817527, 86023.84013221743, 83572.14433814817, 114148.41433148556, 99048.84982691405, 53980.53574330041, 94672.4453177983, 108037.78267357143, 105891.97050237305, 89473.78718540516, -187500.02235174447, 0.0, 0.0, 0.0, 196.0, 0.0, 0.0, 0.0, 123.0, 10.0, 118.0, 0.0, 0.0, 0.0, 1.6558069915943882E9, 0.0, 2022-06-21 19:23:11.594
96.0, 96484.23301985658, 91499.70459934529, 94197.60485858975, 99690.85898290384, 81061.99873232827, 87462.01842570525, 84926.41418295076, 83031.61210198548, 113341.4493014156, 95414.14325405876, 50185.23188653373, 87887.01449477846, 108183.65015788678, 105881.59929294579, 88419.83537910407, -187500.02235174447, 0.0, 0.0, 0.0, 196.0, 0.0, 80.0, 0.0, 123.0, 10.0, 126.0, 0.0, 0.0, 0.0, 1.6558069916023762E9, 0.0, 2022-06-21 19:23:11.602
98.0, 96330.22950055952, 91346.81866727099, 99752.1474662003, 102011.9311823763, 81011.66260381491, 87371.4268054279, 86204.8445588165, 83707.10417116931, 114071.0772956702, 98542.09107662334, 52936.128131881735, 93823.3472494301, 108047.05864752039, 105905.91799091316, 89413.01279223118, -187500.02235174447, 0.0, 0.0, 0.0, 196.0, 17.0, 192.0, 0.0, 123.0, 10.0, 134.0, 0.0, 0.0, 0.0, 1.6558069916093743E9, 0.0, 2022-06-21 19:23:11.609
100.0, 96501.4215113427, 91473.62011356594, 93662.59350330752, 99462.69237550406, 81079.3883895145, 87465.95233272939, 84743.88983772873, 82897.38987653135, 113412.93018018368, 96010.42074089298, 51338.17956902738, 88918.25692871296, 108170.9320152917, 105884.4379644916, 88498.51351958675, -187500.02235174447, 0.0, 0.0, 0.0, 196.0, 0.0, 0.0, 0.0, 123.0, 10.0, 142.0, 0.0, 0.0, 0.0, 1.6558069916183972E9, 0.0, 2022-06-21 19:23:11.618
102.0, 96264.78359279438, 91343.93529223625, 100181.50212544229, 102184.15137340444, 81014.63538582747, 87355.86999128699, 86364.14544154948, 83811.97855615361, 113951.33900062312, 97917.24806037523, 51752.87148390669, 92752.87750397653, 108092.00800562001, 105901.15706934418, 89328.16557027884, -187500.02235174447, 0.0, 0.0, 0.0, 196.0, 0.0, 0.0, 0.0, 123.0, 10.0, 150.0, 0.0, 0.0, 0.0, 1.6558069916266577E9, 0.0, 2022-06-21 19:23:11.626
104.0, 96520.91223250773, 91465.14880241737, 93370.23268583212, 99330.88413845112, 81101.69543048089, 87472.23317292133, 84645.45275514755, 82808.92167197725, 113531.01444614107, 96653.97216725018, 52473.044690256684, 90046.23771265004, 108156.24691918456, 105882.80628714638, 88613.78146574277, -187500.02235174447, 0.0, 0.0, 0.0, 196.0, 0.0, 0.0, 0.0, 123.0, 10.0, 158.0, 0.0, 0.0, 0.0, 1.6558069916345186E9, 0.0, 2022-06-21 19:23:11.634
106.0, 96259.68739505857, 91380.72626360969, 100396.81647978026, 102267.90335987847, 80998.78799900867, 87340.35788063501, 86440.94603549791, 83874.58579237292, 113834.79700503315, 97240.37018303516, 50585.439871006, 91546.19622781232, 108102.78154644747, 105896.48555475302, 89213.18819680074, -187500.02235174447, 0.0, 0.0, 0.0, 196.0, 0.0, 88.0, 0.0, 123.0, 10.0, 166.0, 0.0, 0.0, 0.0, 1.655806991641431E9, 0.0, 2022-06-21 19:23:11.641
108.0, 96551.51177066706, 91438.6843369823, 93320.32124046341, 99309.13589109611, 81109.85381720708, 87478.08932996861, 84590.13218762066, 82753.66815968373, 113664.00732565015, 97342.24943426246, 53581.802973962185, 91262.01614880755, 108138.70079978714, 105882.98510110201, 88738.9959381814, -187500.02235174447, 0.0, 0.0, 0.0, 196.0, 17.0, 192.0, 0.0, 123.0, 10.0, 174.0, 0.0, 0.0, 0.0, 1.6558069916504407E9, 0.0, 2022-06-21 19:23:11.650
110.0, 96267.19758119555, 91391.7680253706, 100369.03326142232, 102257.39803998447, 80995.41288559591, 87342.74951729173, 86473.60193414711, 83921.03271735104, 113710.52130586164, 96544.67213686374, 49492.97600900841, 90304.95915472021, 108124.26157286901, 105905.2474385795, 89081.08938706988, -187500.02235174447, 0.0, 0.0, 0.0, 196.0, 0.0, 0.0, 0.0, 123.0, 10.0, 182.0, 0.0, 0.0, 0.0, 1.655806991658507E9, 0.0, 2022-06-21 19:23:11.658
112.0, 96540.38060192831, 91419.573595473, 93514.78141722459, 99380.66147335309, 81096.39806704498, 87468.92511474194, 84585.17010035159, 82733.35042397385, 113779.81171367309, 97992.0817008116, 54547.040706520165, 92432.08526755396, 108103.13917435876, 105884.2367987915, 88872.65937002414, -187500.02235174447, 0.0, 0.0, 0.0, 196.0, 0.0, 0.0, 0.0, 123.0, 10.0, 190.0, 0.0, 0.0, 0.0, 1.655806991665527E9, 0.0, 2022-06-21 19:23:11.665
114.0, 96240.77781924937, 91397.24420276216, 100122.60527880256, 102147.82978866456, 80971.38476030645, 87345.54348534865, 86417.63316603102, 83912.31553701348, 113561.34576336692, 95894.77281508122, 48567.43497460306, 89110.79485545098, 108137.24793639756, 105910.41069154868, 88920.20153048057, -187500.02235174447, 0.0, 0.0, 0.0, 196.0, 0.0, 0.0, 0.0, 123.0, 10.0, 198.0, 0.0, 0.0, 0.0, 1.6558069916744564E9, 0.0, 2022-06-21 19:23:11.674
116.0, 96521.51572960803, 91366.80112681403, 93946.19243695647, 99560.32479528485, 81102.18716885892, 87473.66368456646, 84670.19613625958, 82768.91204940225, 113903.75213667777, 98593.768309804, 55351.92702435578, 93517.53068179259, 108080.89918862573, 105875.63137717622, 89016.7610665275, -187500.02235174447, 0.0, 0.0, 0.0, 196.0, 0.0, 88.0, 0.0, 123.0, 10.0, 206.0, 0.0, 0.0, 0.0, 1.655806991683544E9, 0.0, 2022-06-21 19:23:11.683
118.0, 96259.8215055253, 91437.03030789261, 99655.05148828644, 101957.75055381663, 81005.87350200099, 87364.67657860239, 86360.14447929198, 83895.84230134993, 113443.59677357636, 95311.5934504978, 47849.76516363206, 88036.79353437347, 108173.65892811524, 105919.1949271196, 88789.9579155395, -187500.02235174447, 0.0, 0.0, 0.0, 196.0, 17.5, 72.0, 0.0, 123.0, 10.0, 214.0, 0.0, 0.0, 0.0, 1.6558069916905613E9, 0.0, 2022-06-21 19:23:11.690
120.0, 96519.4817208626, 91369.50568789312, 94589.98973250267, 99825.39413278033, 81102.00835490327, 87465.25942865128, 84812.06265831742, 82837.66601534677, 114034.44278650795, 99092.68159779091, 55908.172536870545, 94468.03861475452, 108073.81368563339, 105878.64886267768, 89168.70822533467, -187500.02235174447, 0.0, 0.0, 0.0, 196.0, 0.0, 0.0, 0.0, 123.0, 10.0, 222.0, 0.0, 0.0, 0.0, 1.6558069916975873E9, 0.0, 2022-06-21 19:23:11.697
122.0, 96268.40457539614, 91479.72213980224, 98988.79068956265, 101670.84356198831, 81002.20781591033, 87369.03516877118, 86192.26052668817, 83813.20790209866, 113363.44341795963, 94859.55177063368, 47419.82935903423, 87211.81299827254, 108199.56459993895, 105911.21535434907, 88650.5724371162, -187500.02235174447, 0.0, 0.0, 0.0, 196.0, 0.0, 0.0, 0.0, 123.0, 10.0, 230.0, 0.0, 0.0, 0.0, 1.6558069917065542E9, 0.0, 2022-06-21 19:23:11.706
124.0, 96493.5760490389, 91341.49895209062, 95381.8673350653, 100149.49442738229, 81095.50399726677, 87449.143820899, 85000.17493965328, 82946.74252828867, 114162.51828223685, 99450.91300617612, 56180.23797038054, 95158.66281493459, 108071.64556642123, 105878.13477255522, 89288.0218372371, -187500.02235174447, 0.0, 0.0, 0.0, 196.0, 0.0, 0.0, 0.0, 123.0, 10.0, 238.0, 0.0, 0.0, 0.0, 1.6558069917135975E9, 0.0, 2022-06-21 19:23:11.713
126.0, 96309.82235787182, 91460.87961922641, 98168.14639188605, 101323.49745315284, 80997.44689434134, 87369.68336936038, 85969.61480016886, 83682.69606622412, 113312.30262664589, 94562.56414205601, 47291.41858713849, 86628.23130228893, 108198.51406794955, 105912.4447002941, 88521.71463033136, -187500.02235174447, 0.0, 0.0, 0.0, 196.0, 0.0, 96.0, 0.0, 123.0, 10.0, 246.0, 0.0, 0.0, 0.0, 1.6558069917215648E9, 0.0, 2022-06-21 19:23:11.721
128.0, 96461.83657191237, 91308.44072204122, 96275.28891268837, 100527.55183309935, 81079.45544474786, 87430.0330793897, 85204.20166304131, 83057.60718078699, 114231.5628208593, 99660.34885172234, 56163.47416203906, 95595.52766031357, 108038.20735671608, 105901.69351121111, 89376.75826272467, -187500.02235174447, 0.0, 0.0, 0.0, 196.0, 17.5, 64.0, 0.0, 123.0, 10.5, 126.0, 0.0, 0.0, 0.0, 1.6558069917296584E9, 0.0, 2022-06-21 19:23:11.729
130.0, 96328.37430576973, 91496.1506719769, 97264.82299146926, 100950.20096900476, 81014.50127536074, 87387.38595096898, 85749.986559151, 83551.58073324928, 113282.6865652426, 94450.91717850175, 47492.003141880414, 86366.02298808373, 108205.75603315307, 105912.08707238283, 88437.85088513505, -187500.02235174447, 0.0, 0.0, 0.0, 196.0, 0.0, 0.0, 0.0, 123.0, 11.0, 6.0, 0.0, 0.0, 0.0, 1.6558069917387016E9, 0.0, 2022-06-21 19:23:11.738
132.0, 96416.21666147908, 91332.67001303077, 97211.87170885465, 100925.36818091491, 81075.00744760125, 87424.33338455361, 85465.80648014623, 83218.15976120946, 114293.18658032258, 99691.68599744869, 55864.36311773815, 95702.50310927667, 108037.67091484916, 105897.13375534222, 89458.74446138674, -187500.02235174447, 0.0, 0.0, 0.0, 196.0, 0.0, 0.0, 0.0, 123.0, 11.0, 14.0, 0.0, 0.0, 0.0, 1.6558069917456772E9, 0.0, 2022-06-21 19:23:11.745
134.0, 96373.52482956945, 91497.80470106659, 96338.43259077461, 100569.14842953067, 81058.02012181522, 87425.42862003192, 85530.51478034434, 83419.10194386268, 113347.86425207427, 94524.94615613772, 47976.320740738, 86441.3483668981, 108226.7443211966, 105924.04525566641, 88406.84901557554, -187500.02235174447, 0.0, 0.0, 0.0, 196.0, 0.0, 0.0, 0.0, 123.0, 11.0, 22.0, 0.0, 0.0, 0.0, 1.6558069917536943E9, 0.0, 2022-06-21 19:23:11.753
136.0, 96375.55883831487, 91303.47863477214, 98142.55364448472, 101307.20303144492, 81069.41951148743, 87408.1283698235, 85722.31509951534, 83375.6278008971, 114367.34966842529, 99552.50168472549, 55257.26738658755, 95534.12741829484, 108051.73016211155, 105905.71682521307, 89510.22052886731, -187500.02235174447, 0.0, 0.0, 0.0, 196.0, 0.0, 96.0, 0.0, 123.0, 11.0, 30.0, 0.0, 0.0, 0.0, 1.6558069917626736E9, 0.0, 2022-06-21 19:23:11.762
138.0, 96406.06896949637, 91493.35670391998, 95456.70097550166, 100195.22609653785, 81064.68094166291, 87440.31488183915, 85274.94493424236, 83262.21504953087, 113397.50747650952, 94784.29344705265, 48742.11385752128, 86851.3464154418, 108227.90661190827, 105920.35721783129, 88395.1143497365, -187500.02235174447, 0.0, 0.0, 0.0, 196.0, 17.5, 80.0, 0.0, 123.0, 11.0, 38.0, 0.0, 0.0, 0.0, 1.6558069917696064E9, 0.0, 2022-06-21 19:23:11.769
140.0, 96350.90486418067, 91326.03154492755, 98973.4126893774, 101659.33241359383, 81063.63040967351, 87391.54337543767, 85962.4398901987, 83529.63132019417, 114342.7851012689, 99266.44405918647, 54464.18278982434, 95066.93125569001, 108059.01683080397, 105915.26102009548, 89511.40517132345, -187500.02235174447, 0.0, 0.0, 0.0, 196.0, 0.0, 0.0, 0.0, 123.0, 11.0, 46.0, 0.0, 0.0, 0.0, 1.655806991777675E9, 0.0, 2022-06-21 19:23:11.777
142.0, 96453.83464739737, 91505.76192209267, 94668.15378286288, 99855.21135988372, 81073.4875289783, 87447.22157087584, 85033.59079761396, 83097.03565800616, 113466.23909070958, 95197.33133284228, 49715.197052383075, 87528.67132767098, 108221.67047520525, 105911.28240958243, 88422.00349831623, -187500.02235174447, 0.0, 0.0, 0.0, 196.0, 0.0, 0.0, 0.0, 123.0, 11.0, 54.0, 0.0, 0.0, 0.0, 1.6558069917858949E9, 0.0, 2022-06-21 19:23:11.785
144.0, 96314.20329978506, 91346.37163238188, 99666.49558144755, 101941.65729780881, 81036.18246748239, 87372.90202056195, 86149.65810175636, 83660.1431560687, 114277.29449001486, 98815.05057991155, 53473.97815870979, 94295.52785104846, 108079.02164209148, 105922.25711610999, 89460.39849047644, -187500.02235174447, 0.0, 0.0, 0.0, 196.0, 0.0, 0.0, 0.0, 123.0, 11.0, 62.0, 0.0, 0.0, 0.0, 1.655806991794705E9, 0.0, 2022-06-21 19:23:11.794
146.0, 96489.97741818159, 91498.87758480044, 94043.78015324833, 99594.94764744613, 81081.19888081538, 87458.37509135903, 84835.84491441786, 82958.65600808334, 113549.74520799461, 95747.98890924323, 50836.20409205009, 88463.89066742548, 108209.35466401037, 105919.41844456416, 88479.44748156637, -187500.02235174447, 0.0, 0.0, 0.0, 196.0, 0.0, 80.0, 0.0, 123.0, 11.0, 70.0, 0.0, 0.0, 0.0, 1.6558069918017335E9, 0.0, 2022-06-21 19:23:11.801
148.0, 96281.48034590248, 91347.1092399489, 100188.6993871569, 102160.27971032617, 81014.21070268282, 87358.70866283283, 86301.64996405244, 83770.6725324002, 114202.3043873673, 98246.17633177953, 52343.62808986045, 93299.57882160888, 108089.52696198547, 105931.9577732036, 89381.56388778257, -187500.02235174447, 0.0, 0.0, 0.0, 196.0, 17.5, 48.0, 0.0, 123.0, 11.0, 78.0, 0.0, 0.0, 0.0, 1.655806991809713E9, 0.0, 2022-06-21 19:23:11.809
150.0, 96532.42338090223, 91469.50739258617, 93629.11059011347, 99418.95001160503, 81095.10166586658, 87475.85415552309, 84678.35452298577, 82847.59018988493, 113669.25998559713, 96386.89117275372, 52013.6269347223, 89571.01727378575, 108183.24782648658, 105914.90339218419, 88565.68051167495, -187500.02235174447, 0.0, 0.0, 0.0, 196.0, 0.0, 0.0, 0.0, 123.0, 11.0, 86.0, 0.0, 0.0, 0.0, 1.6558069918177352E9, 0.0, 2022-06-21 19:23:11.817
152.0, 96271.66793008661, 91375.87593506288, 100491.69963499304, 102284.95774089787, 81007.79575202415, 87356.18291570937, 86413.87807296254, 83858.91721950975, 114095.06071747074, 97577.70271035466, 51146.64747078985, 92148.01694727146, 108106.73780521606, 105935.3552383608, 89277.31535164302, -187500.02235174447, 0.0, 0.0, 0.0, 196.0, 0.0, 0.0, 0.0, 123.0, 11.0, 94.0, 0.0, 0.0, 0.0, 1.6558069918257072E9, 0.0, 2022-06-21 19:23:11.825
154.0, 96525.38258139881, 91459.35970060345, 93464.78056487806, 99344.25048163539, 81118.12396265555, 87486.15830971698, 84613.82503674329, 82784.20064260968, 113814.23340013427, 97057.84583781313, 53121.737017838605, 90765.7180149219, 108174.26242521554, 105917.38443581873, 88696.90760337206, -187500.02235174447, 0.0, 0.0, 0.0, 196.0, 0.0, 0.0, 0.0, 123.0, 11.0, 102.0, 0.0, 0.0, 0.0, 1.655806991833819E9, 0.0, 2022-06-21 19:23:11.833
156.0, 96240.464894827, 91376.3676734409, 100582.11244131476, 102310.86341272158, 81009.82976076959, 87345.54348534865, 86484.48723369685, 83915.13185681486, 113956.21168091438, 96878.29427460364, 49995.264410408075, 90903.02478111086, 108136.66679104172, 105929.0520464244, 89156.92885600674, -187500.02235174447, 0.0, 0.0, 0.0, 196.0, 0.0, 80.0, 0.0, 123.0, 11.0, 110.0, 0.0, 0.0, 0.0, 1.6558069918418312E9, 0.0, 2022-06-21 19:23:11.841
158.0, 96531.283441935, 91420.22179606221, 93549.94071125278, 99368.16684820257, 81130.39507036151, 87481.77736780375, 84612.52863556489, 82753.26582828353, 113929.30018059019, 97725.09011329296, 54181.276760253524, 91967.59366602823, 108152.26830867153, 105898.67602570965, 88836.36013702872, -187500.02235174447, 0.0, 0.0, 0.0, 196.0, 17.5, 24.0, 0.0, 123.0, 11.0, 118.0, 0.0, 0.0, 0.0, 1.6558069918508422E9, 0.0, 2022-06-21 19:23:11.850
160.0, 96233.08881915675, 91385.10720552293, 100428.46654992897, 102240.2766037317, 81005.58292932308, 87343.15184869192, 86481.44739645092, 83934.62257797988, 113819.97779845928, 96191.87220238117, 48986.06079650651, 89669.74492904484, 108160.40434365325, 105938.05979943988, 89012.67069729218, -187500.02235174447, 0.0, 0.0, 0.0, 196.0, 0.0, 0.0, 0.0, 123.0, 11.0, 126.0, 0.0, 0.0, 0.0, 1.655806991856835E9, 0.0, 2022-06-21 19:23:11.856
162.0, 96532.31162217994, 91401.8263103755, 93877.9078576455, 99502.67964633461, 81118.30277661119, 87475.87650726755, 84645.09512723627, 82761.15599407625, 114043.919926157, 98367.00986230491, 55086.16478278217, 93123.69294449007, 108124.48509031357, 105902.25230482248, 88972.90694390619, -187500.02235174447, 0.0, 0.0, 0.0, 196.0, 0.0, 0.0, 0.0, 123.0, 11.0, 134.0, 0.0, 0.0, 0.0, 1.655806991865847E9, 0.0, 2022-06-21 19:23:11.865
164.0, 96259.37447063619, 91441.97004341723, 100036.32754520507, 102082.8979710219, 81004.75591477823, 87347.37632839398, 86400.19880535589, 83913.56723470298, 113703.03347146911, 95576.4616222932, 48156.1181731365, 88537.74083110581, 108186.66764338824, 105935.39994184971, 88861.59525651876, -187500.02235174447, 0.0, 0.0, 0.0, 196.0, 0.0, 0.0, 0.0, 123.0, 11.0, 142.0, 0.0, 0.0, 0.0, 1.6558069918748467E9, 0.0, 2022-06-21 19:23:11.874
166.0, 96529.16002621174, 91377.55231589703, 94429.28068986902, 99730.75684675657, 81122.46020107987, 87461.25846639377, 84760.76540479249, 82809.79339001101, 114176.84575043271, 98917.57803172804, 55741.2050057894, 94141.54668349585, 108111.58813376287, 105902.74404320051, 89113.8346926969, -187500.02235174447, 0.0, 0.0, 0.0, 196.0, 0.0, 104.0, 0.0, 123.0, 11.0, 150.0, 0.0, 0.0, 0.0, 1.6558069918809397E9, 0.0, 2022-06-21 19:23:11.880
168.0, 96244.15293266212, 91458.17505814733, 99446.82263694081, 101836.96172678015, 81010.9249962479, 87352.98661625227, 86278.2700393522, 83855.00566423008, 113580.27769092056, 95050.90505491557, 47602.75603565646, 87586.89762197706, 108216.68603619172, 105933.07536042636, 88713.62670822462, -187500.02235174447, 0.0, 0.0, 0.0, 196.0, 17.0, 128.0, 0.0, 123.0, 11.0, 158.0, 0.0, 0.0, 0.0, 1.655806991889887E9, 0.0, 2022-06-21 19:23:11.889
170.0, 96495.83357522888, 91340.96251022369, 95170.35277728472, 100038.89799581743, 81114.32416609814, 87450.3955185885, 84925.31894747245, 82893.34421078494, 114281.89894937265, 99338.75195249938, 56150.554853743895, 94953.74202176834, 108096.83598242236, 105906.94617115811, 89251.09675539694, -187500.02235174447, 0.0, 0.0, 0.0, 196.0, 0.0, 0.0, 0.0, 123.0, 11.0, 166.0, 0.0, 0.0, 0.0, 1.655806991897834E9, 0.0, 2022-06-21 19:23:11.897
172.0, 96287.33650294978, 91462.086613427, 98693.56884879695, 101514.73897871244, 81006.78992352365, 87364.18484022438, 86079.3171619555, 83751.33827344637, 113491.65302415527, 94695.78053900965, 47351.29891053426, 86890.77489266096, 108231.48289102112, 105933.4553400821, 88588.63575323056, -187500.02235174447, 0.0, 0.0, 0.0, 196.0, 0.0, 0.0, 0.0, 123.0, 11.0, 174.0, 0.0, 0.0, 0.0, 1.6558069919058526E9, 0.0, 2022-06-21 19:23:11.905
174.0, 96479.11447037631, 91351.0654987175, 96020.68019159797, 100390.87091575515, 81102.07541013663, 87434.12344862503, 85121.63431902342, 83003.24773827169, 114347.56837458235, 99623.40141813773, 56280.91022740725, 95499.12458647783, 108081.72620317058, 105895.43502276362, 89351.00905311217, -187500.02235174447, 0.0, 0.0, 0.0, 196.0, 0.0, 0.0, 0.0, 123.0, 11.0, 182.0, 0.0, 0.0, 0.0, 1.6558069919129012E9, 0.0, 2022-06-21 19:23:11.912
176.0, 96328.39665751418, 91496.24007895471, 97797.77798626162, 101142.4706748093, 81029.74516507926, 87378.8252328426, 85862.28172329447, 83618.21128347055, 113434.49961358304, 94487.17170800826, 47382.05491090476, 86461.06260550769, 108246.48091155064, 105947.42518036667, 88488.11995841503, -187500.02235174447, 0.0, 0.0, 0.0, 196.0, 0.0, 104.0, 0.0, 123.0, 11.0, 190.0, 0.0, 0.0, 0.0, 1.6558069919219155E9, 0.0, 2022-06-21 19:23:11.921
178.0, 96453.25350204152, 91330.59130079643, 96940.83445558959, 100771.61053080685, 81092.53121525422, 87412.12933208101, 85359.14395560551, 83139.99571084925, 114401.12315429725, 99728.47696882213, 56067.3840126257, 95742.42332487385, 108077.92640661317, 105900.26299956597, 89440.03605127765, -187500.02235174447, 0.0, 0.0, 0.0, 196.0, 17.0, 136.0, 0.0, 123.0, 11.0, 198.0, 0.0, 0.0, 0.0, 1.655806991930066E9, 0.0, 2022-06-21 19:23:11.930
180.0, 96343.41702978815, 91500.5986691235, 96857.64126272695, 100750.82340846342, 81048.40887169944, 87398.98650634129, 85626.91785418008, 83475.60715384569, 113404.59297950185, 94475.05706251349, 47740.956871623624, 86389.08998836161, 108252.2476616201, 105929.6555435247, 88423.94810008384, -187500.02235174447, 0.0, 0.0, 0.0, 196.0, 0.0, 0.0, 0.0, 123.0, 11.0, 206.0, 0.0, 0.0, 0.0, 1.655806991938996E9, 0.0, 2022-06-21 19:23:11.938
182.0, 96391.40622513369, 91295.2531928126, 97871.18111505284, 101162.69900354136, 81079.85777614806, 87400.01468658623, 85614.40087728511, 83300.21301510489, 114395.53521818343, 99659.16420926622, 55587.648521381445, 95686.56631548004, 108075.89239786773, 105910.14247061522, 89495.73659846028, -187500.02235174447, 0.0, 0.0, 0.0, 196.0, 0.0, 0.0, 0.0, 123.0, 11.0, 214.0, 0.0, 0.0, 0.0, 1.6558069919459429E9, 0.0, 2022-06-21 19:23:11.945
184.0, 96377.1458121712, 91496.95533477729, 95936.32470802363, 100359.15379037306, 81063.04926431767, 87414.85624490456, 85375.23721161333, 83316.12745715708, 113394.08765960786, 94661.06827987055, 48402.032065633786, 86642.42466001805, 108240.51299578107, 105931.42133133666, 88387.89473627743, -187500.02235174447, 0.0, 0.0, 0.0, 196.0, 0.0, 0.0, 0.0, 123.0, 11.0, 222.0, 0.0, 0.0, 0.0, 1.655806991953946E9, 0.0, 2022-06-21 19:23:11.953
186.0, 96356.04576540539, 91304.81973943947, 98741.64745112031, 101519.79047295934, 81066.78200564171, 87378.06527353112, 85852.29049352295, 83450.30497912229, 114376.26801446296, 99427.0189913534, 54875.61135001318, 95322.27758434744, 108076.4064879902, 105917.78676721893, 89508.45474105535, -187500.02235174447, 0.0, 0.0, 0.0, 196.0, 0.0, 112.0, 0.0, 123.0, 11.0, 230.0, 0.0, 0.0, 0.0, 1.6558069919609838E9, 0.0, 2022-06-21 19:23:11.960
188.0, 96444.0669350704, 91502.47621565775, 95088.32187513374, 100002.46465235528, 81081.7353226823, 87431.97768115732, 85127.15519990388, 83160.89459191497, 113433.22556414909, 95008.10146428365, 49289.105747831556, 87196.32323936501, 108251.04066741953, 105922.81590972136, 88397.43893115985, -187500.02235174447, 0.0, 0.0, 0.0, 196.0, 17.0, 136.0, 0.0, 123.0, 11.0, 238.0, 0.0, 0.0, 0.0, 1.6558069919690096E9, 0.0, 2022-06-21 19:23:11.969
190.0, 96338.5443494969, 91331.1053909189, 99508.89343129318, 101840.89563380429, 81057.81895611512, 87370.95741879434, 86075.69617935375, 83609.65056534417, 114326.60243828327, 99039.81972215412, 53936.97219335702, 94666.5444572621, 108095.98661613306, 105932.06953192587, 89487.4217495229, -187500.02235174447, 0.0, 0.0, 0.0, 196.0, 0.0, 0.0, 0.0, 123.0, 11.0, 246.0, 0.0, 0.0, 0.0, 1.655806991977972E9, 0.0, 2022-06-21 19:23:11.977
192.0, 96473.70534821814, 91478.09046245701, 94390.27689579451, 99710.8414424469, 81105.91991018294, 87452.98832094531, 84932.02447080905, 83028.77343043964, 113514.60826571086, 95495.41419689826, 50349.96424316934, 88037.19586577367, 108238.41193180227, 105929.7002470136, 88458.74976620077, -187500.02235174447, 0.0, 0.0, 0.0, 196.0, 0.0, 0.0, 0.0, 123.0, 11.5, 126.0, 0.0, 0.0, 0.0, 1.6558069919861755E9, 0.0, 2022-06-21 19:23:11.986
194.0, 96271.98085450899, 91320.89064370283, 100107.6743135064, 102089.93877052532, 81045.16786875343, 87352.87485752998, 86256.16416408589, 83731.95931100361, 114250.60650713522, 98507.93761109562, 52838.22749116749, 93764.02571964571, 108111.07404364039, 105931.82366273686, 89434.93985354184, -187500.02235174447, 0.0, 0.0, 0.0, 196.0, 0.0, 0.0, 0.0, 123.0, 12.0, 6.0, 0.0, 0.0, 0.0, 1.6558069919931228E9, 0.0, 2022-06-21 19:23:11.993
196.0, 96471.8725051728, 91456.1857528908, 93885.97683739387, 99491.2802566624, 81106.7916282167, 87449.70261451037, 84748.89662848672, 82897.38987653135, 113622.18721177426, 96097.86076520215, 51501.43671052894, 89077.60251493484, 108219.3905972708, 105918.9490579306, 88537.18203749444, -187500.02235174447, 0.0, 0.0, 0.0, 196.0, 0.0, 88.0, 0.0, 123.0, 12.0, 14.0, 0.0, 0.0, 0.0, 1.6558069920020611E9, 0.0, 2022-06-21 19:23:12.002
198.0, 96257.40751712413, 91358.55333311002, 100511.45857709153, 102254.62642367202, 81031.24273195777, 87337.29569164464, 86388.88882266151, 83831.62573952982, 114129.77297660983, 97875.6514639439, 51677.00966322538, 92669.5725523916, 108126.09441591435, 105937.23278489504, 89335.89927386037, -187500.02235174447, 0.0, 0.0, 0.0, 196.0, 17.0, 112.0, 0.0, 123.0, 12.0, 21.0, 0.0, 0.0, 0.0, 1.655806992010017E9, 0.0, 2022-06-21 19:23:12.010
200.0, 96527.01425874404, 91470.02148270863, 93606.46827298026, 99371.31844417077, 81123.75660225828, 87463.00190246128, 84642.32351092382, 82808.6981545327, 113727.5980386255, 96770.0894796955, 52680.602989268664, 90244.20711329069, 108201.01746332855, 105925.98985743402, 88648.33726267067, -187500.02235174447, 0.0, 0.0, 0.0, 196.0, 0.0, 0.0, 0.0, 123.0, 12.0, 29.0, 0.0, 0.0, 0.0, 1.65580699201708E9, 0.0, 2022-06-21 19:23:12.017
202.0, 96249.76322052041, 91376.47943216318, 100688.99848330003, 102326.77785477375, 81017.11642946201, 87328.73497351825, 86460.05677700721, 83897.8986618398, 113998.97056805737, 97196.11372901365, 50500.972628709394, 91437.58910150398, 108143.64053531177, 105942.70896228659, 89216.0045166021, -187500.02235174447, 0.0, 0.0, 0.0, 196.0, 0.0, 0.0, 0.0, 123.0, 12.0, 37.0, 0.0, 0.0, 0.0, 1.6558069920250907E9, 0.0, 2022-06-21 19:23:12.025
204.0, 96517.91709875072, 91414.20917680374, 93576.40517668787, 99353.45940035098, 81128.0034337048, 87465.23707690682, 84589.215766098, 82760.57484872043, 113854.868871554, 97455.37161295077, 53787.30491248428, 91461.840744238, 108171.11082924734, 105915.52924102894, 88770.57895309674, -187500.02235174447, 0.0, 0.0, 0.0, 196.0, 0.0, 0.0, 0.0, 123.0, 12.0, 45.0, 0.0, 0.0, 0.0, 1.6558069920342147E9, 0.0, 2022-06-21 19:23:12.034
206.0, 96237.58151979226, 91395.83604286147, 100631.68861051663, 102298.97228467134, 81012.08728695956, 87327.88560722895, 86482.34146622915, 83939.65172048232, 113868.19051124937, 96488.9268861922, 49404.97719108787, 90167.3841675978, 108168.89800654627, 105959.02573573896, 89075.61320967833, -187500.02235174447, 0.0, 0.0, 0.0, 196.0, 0.0, 96.0, 0.0, 123.0, 12.0, 53.0, 0.0, 0.0, 0.0, 1.655806992041096E9, 0.0, 2022-06-21 19:23:12.041
208.0, 96507.43413060119, 91410.45408373524, 93806.96342074436, 99453.1258288772, 81136.87707625354, 87468.5898385751, 84633.04753697486, 82763.0335406105, 113984.03960276123, 98106.90261207851, 54758.42115383401, 92640.9176159999, 108161.74544832057, 105913.74110147252, 88919.75449559146, -187500.02235174447, 0.0, 0.0, 0.0, 196.0, 17.0, 160.0, 0.0, 123.0, 12.0, 61.0, 0.0, 0.0, 0.0, 1.6558069920491395E9, 0.0, 2022-06-21 19:23:12.049
210.0, 96223.56697601879, 91428.93897639979, 100341.33945004219, 102186.83358273907, 81013.96483349381, 87340.33552889056, 86453.3065501817, 83942.17746760577, 113728.76032933716, 95835.49598878575, 48495.149433034596, 88997.73973199603, 108205.93484710871, 105955.67297407068, 88937.32296673334, -187500.02235174447, 0.0, 0.0, 0.0, 196.0, 0.0, 0.0, 0.0, 123.0, 12.0, 69.0, 0.0, 0.0, 0.0, 1.6558069920571053E9, 0.0, 2022-06-21 19:23:12.057
212.0, 96502.38263635429, 91404.15089179885, 94260.45796399808, 99635.02432525449, 81117.5428172997, 87455.58112330212, 84689.21747079105, 82782.34544781988, 114103.9343600195, 98706.35404662539, 55518.87220369247, 93735.28137627618, 108135.83977649687, 105911.7964997049, 89061.33044497138, -187500.02235174447, 0.0, 0.0, 0.0, 196.0, 0.0, 0.0, 0.0, 123.0, 12.0, 77.0, 0.0, 0.0, 0.0, 1.655806992066152E9, 0.0, 2022-06-21 19:23:12.066
214.0, 96203.53981298684, 91449.81550572104, 99819.35916177741, 101962.80204806353, 81005.64998455644, 87338.34622363404, 86321.74418231777, 83878.43029241923, 113604.12700225438, 95271.31560698934, 47802.44652062017, 87952.0133676545, 108223.41391127276, 105952.43197112465, 88772.32238916426, -187500.02235174447, 0.0, 0.0, 0.0, 196.0, 0.0, 0.0, 0.0, 123.0, 12.0, 85.0, 0.0, 0.0, 0.0, 1.655806992073157E9, 0.0, 2022-06-21 19:23:12.073
216.0, 96485.3729588238, 91376.07710076298, 94924.9529749099, 99913.50470942316, 81129.25513139428, 87454.10590816807, 84868.00907468905, 82869.42784421776, 114209.68046303756, 99189.64346523804, 56027.53085226189, 94637.30837551456, 108123.41220657971, 105921.4524533096, 89198.6595629048, -187500.02235174447, 0.0, 0.0, 0.0, 196.0, 0.0, 96.0, 0.0, 123.0, 12.0, 93.0, 0.0, 0.0, 0.0, 1.6558069920812142E9, 0.0, 2022-06-21 19:23:12.081
218.0, 96233.0664674123, 91476.61524732296, 99128.98083078633, 101676.72207078006, 81020.6256533415, 87357.47931688778, 86188.59484059749, 83812.64910848727, 113499.99022483709, 94834.87544475502, 47399.98100995791, 87141.29324451605, 108247.91142319578, 105963.25021544102, 88652.89701853956, -187500.02235174447, 0.0, 0.0, 0.0, 196.0, 17.0, 152.0, 0.0, 123.0, 12.0, 101.0, 0.0, 0.0, 0.0, 1.6558069920901728E9, 0.0, 2022-06-21 19:23:12.090
220.0, 96447.0620688274, 91365.79529831355, 95736.72363003774, 100254.4135158555, 81101.60602350307, 87433.07291663563, 85031.04269874605, 82960.42179589532, 114291.28668204388, 99533.32388798284, 56264.727564421606, 95302.63040097123, 108104.86025868182, 105928.11327315727, 89319.49309343018, -187500.02235174447, 0.0, 0.0, 0.0, 196.0, 0.0, 0.0, 0.0, 123.0, 12.0, 109.0, 0.0, 0.0, 0.0, 1.6558069920972476E9, 0.0, 2022-06-21 19:23:12.097
222.0, 96268.44927888505, 91531.04174507162, 98302.99446618491, 101333.15340675753, 81019.75393530774, 87363.80486056863, 85976.18621303872, 83696.24122336404, 113413.64543600625, 94572.48831659417, 47330.91411959101, 86611.10986603616, 108250.97361218615, 105950.59912807932, 88531.72821184734, -187500.02235174447, 0.0, 0.0, 0.0, 196.0, 0.0, 0.0, 0.0, 123.0, 12.0, 117.0, 0.0, 0.0, 0.0, 1.6558069921062057E9, 0.0, 2022-06-21 19:23:12.106
224.0, 96419.05533302491, 91371.96437978321, 96633.63207979585, 100630.72748550505, 81102.27657583673, 87420.66769846293, 85274.81082377564, 83102.40007667543, 114346.58489782631, 99722.91138445276, 56231.46816867211, 95676.99976885317, 108096.8136306779, 105925.87809871175, 89421.99819350222, -187500.02235174447, 0.0, 0.0, 0.0, 196.0, 0.0, 0.0, 0.0, 123.0, 12.0, 125.0, 0.0, 0.0, 0.0, 1.6558069921132708E9, 0.0, 2022-06-21 19:23:12.113
226.0, 96289.41521518413, 91531.06409681609, 97371.15023984316, 100937.66164036533, 81029.58870286807, 87371.51621240571, 85732.82041940933, 83547.49036401395, 113367.08675230584, 94466.40693740928, 47557.67256709011, 86356.16586877893, 108262.9094437253, 105945.52528208797, 88454.05589986514, -187500.02235174447, 0.0, 0.0, 0.0, 196.0, 0.0, 88.0, 0.0, 123.0, 12.0, 133.0, 0.0, 0.0, 0.0, 1.6558069921213224E9, 0.0, 2022-06-21 19:23:12.121
228.0, 96377.01170170447, 91325.8527309719, 97560.20129444615, 101019.22315588275, 81087.85970066306, 87403.90389012145, 85514.57798654771, 83251.17328776995, 114369.24956670399, 99728.34285835539, 55879.3387865232, 95735.87426374844, 108085.39188926124, 105927.42036907916, 89481.09620584206, -187500.02235174447, 0.0, 0.0, 0.0, 196.0, 17.0, 152.0, 0.0, 123.0, 12.0, 141.0, 0.0, 0.0, 0.0, 1.6558069921293662E9, 0.0, 2022-06-21 19:23:12.129
230.0, 96325.37917201272, 91531.57818693855, 96431.63936515324, 100556.29617646888, 81057.21545901483, 87404.0827040771, 85496.94246017247, 83409.7365629359, 113368.89724360673, 94557.75851699812, 48077.931771031836, 86453.19479145942, 108285.0600224805, 105955.18123569265, 88416.12498952448, -187500.02235174447, 0.0, 0.0, 0.0, 196.0, 0.0, 0.0, 0.0, 123.0, 12.0, 149.0, 0.0, 0.0, 0.0, 1.655806992137392E9, 0.0, 2022-06-21 19:23:12.137
232.0, 96315.07501781882, 91359.24623718814, 98460.59661633929, 101390.2844655853, 81064.94916259637, 87380.0769305321, 85741.49289625799, 83391.76576039384, 114361.02412474444, 99561.55414122989, 55230.86997638583, 95480.41617636874, 108100.99340689105, 105932.04718018141, 89516.61312778153, -187500.02235174447, 0.0, 0.0, 0.0, 196.0, 0.0, 0.0, 0.0, 123.0, 12.0, 157.0, 0.0, 0.0, 0.0, 1.6558069921453407E9, 0.0, 2022-06-21 19:23:12.145
234.0, 96359.73380324052, 91546.82207665707, 95536.63081367384, 100174.50602942778, 81065.57501144112, 87413.9845268708, 85239.3162535806, 83240.8914853205, 113366.63971741674, 94832.81908426512, 48853.827876308904, 86858.7001393676, 108270.91136824028, 105944.94413673213, 88398.44475966034, -187500.02235174447, 0.0, 0.0, 0.0, 196.0, 0.0, 0.0, 0.0, 123.0, 12.0, 165.0, 0.0, 0.0, 0.0, 1.6558069921533315E9, 0.0, 2022-06-21 19:23:12.153
236.0, 96285.90599130464, 91362.19666745624, 99282.35850123865, 101729.13691152775, 81051.8286886011, 87362.10612799003, 85983.80815789798, 83546.46218376902, 114312.09615613177, 99245.67928858749, 54385.16937317484, 94934.1618936255, 108107.16248836071, 105934.66233428268, 89510.30993584513, -187500.02235174447, 0.0, 0.0, 0.0, 196.0, 0.0, 88.0, 0.0, 123.0, 12.0, 173.0, 0.0, 0.0, 0.0, 1.6558069921623394E9, 0.0, 2022-06-21 19:23:12.162
238.0, 96405.84545205181, 91513.42857044084, 94762.20992353081, 99852.12681914888, 81086.71976169584, 87439.86784695004, 85023.59956784244, 83100.83545456355, 113430.76687225902, 95266.24176099799, 49862.40564136573, 87573.68774100396, 108263.31177512549, 105947.20166292212, 88433.33583275508, -187500.02235174447, 0.0, 0.0, 0.0, 196.0, 17.0, 160.0, 0.0, 123.0, 12.0, 181.0, 0.0, 0.0, 0.0, 1.655806992169291E9, 0.0, 2022-06-21 19:23:12.169
240.0, 96258.54745609134, 91346.7069085487, 99956.57652098853, 102014.09930158846, 81049.45940368884, 87360.65326460043, 86202.9446605378, 83704.84664497932, 114237.30721918431, 98767.44136422174, 53348.04843044859, 94132.40482001363, 108128.46370082661, 105947.49223560003, 89477.20700230682, -187500.02235174447, 0.0, 0.0, 0.0, 196.0, 0.0, 0.0, 0.0, 123.0, 12.0, 189.0, 0.0, 0.0, 0.0, 1.6558069921773508E9, 0.0, 2022-06-21 19:23:12.177
242.0, 96410.4052079207, 91528.605404926, 94152.94607316806, 99595.5511445464, 81101.44956129188, 87448.62973077652, 84832.60391147184, 82966.05443549805, 113525.73943444961, 95836.54652077515, 50984.127936855315, 88531.81761882515, 108254.97457444365, 105937.54570931742, 88512.1480837045, -187500.02235174447, 0.0, 0.0, 0.0, 196.0, 0.0, 0.0, 0.0, 123.0, 12.0, 197.0, 0.0, 0.0, 0.0, 1.6558069921854472E9, 0.0, 2022-06-21 19:23:12.185
244.0, 96203.42805426456, 91374.95951354022, 100437.67546864456, 102204.2232399253, 81018.45753412934, 87332.89239798694, 86334.14940049045, 83800.22153857011, 114135.11504353465, 98170.4709733094, 52186.696492039744, 93090.99234235196, 108135.34803811886, 105938.43977909563, 89386.86125121848, -187500.02235174447, 0.0, 0.0, 0.0, 196.0, 0.0, 0.0, 0.0, 123.0, 12.0, 205.0, 0.0, 0.0, 0.0, 1.6558069921934333E9, 0.0, 2022-06-21 19:23:12.193
246.0, 96466.03869986995, 91501.93977379081, 93759.35420505455, 99422.48158722898, 81106.5457590277, 87451.98249244482, 84689.0386568354, 82845.98086428415, 113630.94909560075, 96468.5197435045, 52155.51580852459, 89635.97144317286, 108233.71806546666, 105919.82077596436, 88599.56575626919, -187500.02235174447, 0.0, 0.0, 0.0, 196.0, 0.0, 88.0, 0.0, 123.0, 12.0, 213.0, 0.0, 0.0, 0.0, 1.6558069922013743E9, 0.0, 2022-06-21 19:23:12.201
248.0, 96197.03545535034, 91376.65824611882, 100709.42797773218, 102315.91490696846, 81018.79281029616, 87321.94004320384, 86446.42221288946, 83872.48472839412, 114021.94816135743, 97496.38706402625, 50985.71491071164, 91904.94172632, 108162.19248320967, 105939.75853201849, 89279.3717121329, -187500.02235174447, 0.0, 0.0, 0.0, 196.0, 17.0, 192.0, 0.0, 123.0, 12.0, 221.0, 0.0, 0.0, 0.0, 1.655806992209398E9, 0.0, 2022-06-21 19:23:12.209
250.0, 96477.05810988642, 91474.00009322168, 93616.86183415198, 99363.98707198944, 81121.38731734602, 87462.2419431498, 84612.32746986479, 82781.00434315257, 113757.1023413065, 97141.39665858707, 53267.38098470939, 90841.55748385876, 108218.49652749259, 105930.34844760281, 88731.01636541085, -187500.02235174447, 0.0, 0.0, 0.0, 196.0, 0.0, 0.0, 0.0, 123.0, 12.0, 229.0, 0.0, 0.0, 0.0, 1.6558069922173932E9, 0.0, 2022-06-21 19:23:12.217
252.0, 96170.36982421516, 91400.61931617491, 100754.9808329321, 102337.17141594547, 81007.7734002797, 87324.68930777184, 86493.13735880106, 83938.42237453727, 113884.61904342403, 96792.91061078437, 49833.32602182937, 90676.7580719898, 108185.55005616548, 105940.87611924126, 89148.92693149173, -187500.02235174447, 0.0, 0.0, 0.0, 196.0, 0.0, 0.0, 0.0, 123.0, 12.0, 237.0, 0.0, 0.0, 0.0, 1.6558069922244463E9, 0.0, 2022-06-21 19:23:12.224
254.0, 96467.9162464042, 91449.8825609544, 93732.50975996372, 99413.69735165803, 81124.02482319175, 87460.65496929348, 84610.04759193034, 82758.49613648608, 113877.48883694278, 97819.36977140544, 54307.92174433729, 92060.86749564022, 108188.90281783376, 105913.53993577242, 88863.45045130856, -187500.02235174447, 0.0, 0.0, 0.0, 196.0, 0.0, 0.0, 0.0, 123.0, 12.0, 245.0, 0.0, 0.0, 0.0, 1.6558069922335236E9, 0.0, 2022-06-21 19:23:12.233
0.0, 96167.64291139161, 91436.06918288102, 100566.91325508515, 102259.87908361902, 80990.18257739337, 87310.92063318737, 86464.79534683173, 83933.8626186684, 113736.94106780781, 96117.03856194479, 48849.46928614012, 89458.29742649764, 108210.00286459958, 105942.55250007541, 88997.20329012911, -187500.02235174447, 0.0, 0.0, 0.0, 196.0, 0.0, 0.0, 0.0, 123.0, 12.0, 253.0, 0.0, 0.0, 0.0, 1.6558069922414374E9, 0.0, 2022-06-21 19:23:12.241
2.0, 96472.0736708729, 91414.075066337, 94085.53321189086, 99563.99048137551, 81120.53795105671, 87454.44118433491, 84665.09993852377, 82770.05198836947, 114008.89474259553, 98459.1884564386, 55206.528926674, 93211.49059671052, 108166.26050070055, 105910.03071189293, 88999.55022329692, -187500.02235174447, 0.0, 0.0, 0.0, 196.0, 0.0, 0.0, 0.0, 123.0, 13.0, 5.0, 0.0, 0.0, 0.0, 1.6558069922494624E9, 0.0, 2022-06-21 19:23:12.249
4.0, 96191.31340876978, 91447.60268301997, 100144.55469185767, 102094.52087813866, 81007.32636539059, 87329.360822363, 86405.63027925853, 83927.559426732, 113612.28538898056, 95511.14982499479, 48065.817125537054, 88349.62854976996, 108230.23119333162, 105958.1093142163, 88853.61568374821, -187500.02235174447, 0.0, 0.0, 0.0, 196.0, 0.0, 0.0, 0.0, 123.0, 13.0, 13.0, 0.0, 0.0, 0.0, 1.6558069922574203E9, 0.0, 2022-06-21 19:23:12.257
6.0, 96464.13880159127, 91391.0751212925, 94647.590177964, 99800.89662085733, 81123.24251213581, 87447.86977146505, 84789.39798943973, 82832.52511412205, 114107.35417692116, 98989.05891049611, 55845.45354192895, 94208.91484128415, 108135.9738869636, 105917.02680790744, 89144.50128608958, -187500.02235174447, 0.0, 0.0, 0.0, 196.0, 0.0, 72.0, 0.0, 123.0, 13.0, 21.0, 0.0, 0.0, 0.0, 1.6558069922654643E9, 0.0, 2022-06-21 19:23:12.265
8.0, 96186.19485928952, 91466.17698266232, 99519.17523374263, 101825.31646791894, 81009.69565030285, 87330.27724388568, 86263.51788801169, 83851.38468162832, 113487.9426345757, 95004.05579853724, 47528.861168487216, 87418.61133797304, 108253.56641454298, 105947.98397397804, 88714.27490881382, -187500.02235174447, 0.0, 0.0, 0.0, 196.0, 17.5, 96.0, 0.0, 123.0, 13.0, 29.0, 0.0, 0.0, 0.0, 1.6558069922735271E9, 0.0, 2022-06-21 19:23:12.273
10.0, 96428.9571558186, 91384.03432178908, 95386.06946302288, 100103.85216520455, 81123.8013057472, 87427.84260843309, 84969.88832591634, 82919.33928958647, 114221.28101840986, 99401.73916837445, 56213.98910450806, 94976.16082145702, 108116.90784894323, 105922.63709576573, 89274.14140393036, -187500.02235174447, 0.0, 0.0, 0.0, 196.0, 0.0, 0.0, 0.0, 123.0, 13.0, 37.0, 0.0, 0.0, 0.0, 1.655806992280553E9, 0.0, 2022-06-21 19:23:12.280
12.0, 96204.67975195406, 91491.92619227484, 98723.09550322242, 101498.1092808377, 81018.36812715151, 87346.97399699378, 86074.31037119751, 83755.7192153596, 113400.18968584415, 94660.55418974807, 47301.007485509814, 86738.20188500904, 108256.51684481108, 105949.61565132329, 88591.13914860954, -187500.02235174447, 0.0, 0.0, 0.0, 196.0, 0.0, 0.0, 0.0, 123.0, 13.0, 45.0, 0.0, 0.0, 0.0, 1.6558069922895012E9, 0.0, 2022-06-21 19:23:12.289
14.0, 96380.0515389504, 91348.69621380523, 96238.25207212592, 100461.97181486749, 81105.31641308265, 87414.05158210416, 85167.16482247888, 83040.70926197879, 114266.69976314304, 99651.58696789587, 56281.44666927418, 95484.30537990396, 108098.37825278977, 105916.93740092963, 89377.71938773626, -187500.02235174447, 0.0, 0.0, 0.0, 196.0, 0.0, 0.0, 0.0, 123.0, 13.0, 53.0, 0.0, 0.0, 0.0, 1.6558069922975035E9, 0.0, 2022-06-21 19:23:12.297
16.0, 96239.66023202661, 91504.62198312546, 97820.73322781721, 101124.36576180051, 81034.72960409279, 87364.7659855802, 85861.83468840536, 83631.46586793255, 113321.06451047237, 94483.93070506224, 47375.975236412916, 86371.52151721973, 108274.06296420848, 105954.33186940335, 88495.5854410631, -187500.02235174447, 0.0, 0.0, 0.0, 196.0, 0.0, 72.0, 0.0, 123.0, 13.0, 61.0, 0.0, 0.0, 0.0, 1.6558069923055327E9, 0.0, 2022-06-21 19:23:12.305
18.0, 96369.45681207858, 91349.67969056126, 97163.30136815326, 100848.14290382182, 81092.17358734293, 87400.88640461999, 85406.19437768393, 83186.53204280521, 114309.12337411921, 99752.43803887822, 56064.500637590965, 95723.02201068665, 108095.24900856602, 105927.755645246, 89459.4150137204, -187500.02235174447, 0.0, 0.0, 0.0, 196.0, 17.0, 216.0, 0.0, 123.0, 13.0, 69.0, 0.0, 0.0, 0.0, 1.6558069923125422E9, 0.0, 2022-06-21 19:23:12.312
20.0, 96287.82824132779, 91529.72299214876, 96884.17278339539, 100737.85939667934, 81036.56244713813, 87377.43942468637, 85604.94608938052, 83470.51095610988, 113296.5893502938, 94499.93455409224, 47800.725436297114, 86366.49237471729, 108270.66549905128, 105952.27550891346, 88428.10552455253, -187500.02235174447, 0.0, 0.0, 0.0, 196.0, 0.0, 0.0, 0.0, 123.0, 13.0, 77.0, 0.0, 0.0, 0.0, 1.655806992321574E9, 0.0, 2022-06-21 19:23:12.321
22.0, 96314.44916897407, 91337.78856251104, 98075.58781809662, 101233.62108869804, 81068.34662775358, 87379.4287299429, 85641.69235726504, 83328.30915788522, 114316.70061548956, 99677.13501180828, 55577.433774165365, 95645.08147777099, 108088.31996778489, 105922.88296495474, 89500.56457526262, -187500.02235174447, 0.0, 0.0, 0.0, 196.0, 0.0, 0.0, 0.0, 123.0, 13.0, 85.0, 0.0, 0.0, 0.0, 1.655806992329631E9, 0.0, 2022-06-21 19:23:12.329
24.0, 96318.47248297602, 91552.72293719328, 95957.0447751337, 100359.60082526217, 81074.09102607859, 87402.27221277621, 85375.59483952461, 83328.64443405205, 113307.1393736767, 94697.9039547329, 48474.652883369075, 86636.34498552622, 108280.52261835607, 105960.97033750659, 88410.58175689957, -187500.02235174447, 0.0, 0.0, 0.0, 196.0, 0.0, 0.0, 0.0, 123.0, 13.0, 93.0, 0.0, 0.0, 0.0, 1.6558069923366206E9, 0.0, 2022-06-21 19:23:12.336
26.0, 96300.61343915624, 91356.7651935536, 98928.46333127777, 101591.89720057216, 81070.11241556554, 87363.93897103536, 85898.5809562899, 83487.6100406182, 114284.15647556263, 99426.46019774201, 54813.22763123842, 95237.07273448381, 108108.36948256129, 105941.88194774174, 89528.99599420978, -187500.02235174447, 0.0, 0.0, 0.0, 196.0, 0.0, 80.0, 0.0, 123.0, 13.0, 101.0, 0.0, 0.0, 0.0, 1.655806992345651E9, 0.0, 2022-06-21 19:23:12.345
28.0, 96374.93298947014, 91535.17681779586, 95116.95445978099, 100005.05745471209, 81076.54971796868, 87412.7328291813, 85124.51769405814, 83163.84502218307, 113359.48715919103, 95054.59309275069, 49371.96366452738, 87228.86737929194, 108280.0085282336, 105953.77307579198, 88422.87521634999, -187500.02235174447, 0.0, 0.0, 0.0, 196.0, 17.0, 176.0, 0.0, 123.0, 13.0, 109.0, 0.0, 0.0, 0.0, 1.6558069923536787E9, 0.0, 2022-06-21 19:23:12.353
30.0, 96256.22287466799, 91358.73214706566, 99666.85320935884, 101899.79248044401, 81040.76457509573, 87349.20917143932, 86092.45998769523, 83626.79435334139, 114225.75136730092, 99018.85378585504, 53871.57098908079, 94565.58162755748, 108109.93410467317, 105935.31053487188, 89495.98246764929, -187500.02235174447, 0.0, 0.0, 0.0, 196.0, 0.0, 0.0, 0.0, 123.0, 13.0, 117.0, 0.0, 0.0, 0.0, 1.6558069923606524E9, 0.0, 2022-06-21 19:23:12.360
32.0, 96397.41884439217, 91523.86683510148, 94413.2321373501, 99712.42841630321, 81092.39710478748, 87435.71042248135, 84912.37728743283, 83021.24089255821, 113439.30523864094, 95563.49761050912, 50456.60441596561, 88089.61070652136, 108257.47796982265, 105939.04327619592, 88475.60298152006, -187500.02235174447, 0.0, 0.0, 0.0, 196.0, 0.0, 0.0, 0.0, 123.0, 13.0, 125.0, 0.0, 0.0, 0.0, 1.6558069923686917E9, 0.0, 2022-06-21 19:23:12.368
34.0, 96208.50190025591, 91350.08202196145, 100237.09091390263, 102134.53050071365, 81030.43806915738, 87337.29569164464, 86278.13592888546, 83756.03213978198, 114142.8934506051, 98465.37988965273, 52746.607690645185, 93633.93856691582, 108127.3237618594, 105943.91595648718, 89433.19641747432, -187500.02235174447, 0.0, 0.0, 0.0, 196.0, 0.0, 0.0, 0.0, 123.0, 13.0, 133.0, 0.0, 0.0, 0.0, 1.6558069923776236E9, 0.0, 2022-06-21 19:23:12.377
36.0, 96405.01843750697, 91484.8406892825, 93914.58707029666, 99503.8419370463, 81105.76344797177, 87446.34985284208, 84758.21730592458, 82903.64836497884, 113526.47704201663, 96164.91599856806, 51617.576374718716, 89158.91816126325, 108244.75982722758, 105934.41646509367, 88558.23738077133, -187500.02235174447, 0.0, 0.0, 0.0, 196.0, 0.0, 96.0, 0.0, 123.0, 13.0, 141.0, 0.0, 0.0, 0.0, 1.6558069923847785E9, 0.0, 2022-06-21 19:23:12.384
38.0, 96176.33773998472, 91368.58926637046, 100613.62840099673, 102287.8411159326, 81018.0775544736, 87318.96726119128, 86410.7488287388, 83847.96486472666, 114019.06478632269, 97830.23271921072, 51582.819412090714, 92544.00045204168, 108152.89415751626, 105945.23470941004, 89334.7369831487, -187500.02235174447, 0.0, 0.0, 0.0, 196.0, 17.0, 184.0, 0.0, 123.0, 13.0, 149.0, 0.0, 0.0, 0.0, 1.6558069923927495E9, 0.0, 2022-06-21 19:23:12.392
40.0, 96431.92993783117, 91476.48113685622, 93647.39431707792, 99389.84804032423, 81114.57003528715, 87451.13312615552, 84647.30794993734, 82812.67676504573, 113637.52050847061, 96837.94937586182, 52808.58907801975, 90348.83562908598, 108224.21857407315, 105920.02194166445, 88667.2244867354, -187500.02235174447, 0.0, 0.0, 0.0, 196.0, 0.0, 0.0, 0.0, 123.0, 13.0, 157.0, 0.0, 0.0, 0.0, 1.6558069924016576E9, 0.0, 2022-06-21 19:23:12.401
42.0, 96157.58462638673, 91389.6222579029, 100750.95751893014, 102342.82640729265, 81007.4157723684, 87315.16746463388, 86474.18307950295, 83912.6061096914, 113881.89213060048, 97135.00405967285, 50408.19053747541, 91309.58066100844, 108170.06029725794, 105941.43491285264, 89204.49336820762, -187500.02235174447, 0.0, 0.0, 0.0, 196.0, 0.0, 0.0, 0.0, 123.0, 13.0, 165.0, 0.0, 0.0, 0.0, 1.6558069924097068E9, 0.0, 2022-06-21 19:23:12.409
44.0, 96457.23211255457, 91442.41707830633, 93639.66061349638, 99381.30967394229, 81122.81782899116, 87448.7414894988, 84607.968879696, 82764.64286621129, 113747.33462897953, 97518.60469801482, 53879.57291359579, 91539.28953877563, 108202.0903470624, 105932.0024766925, 88797.19988074302, -187500.02235174447, 0.0, 0.0, 0.0, 196.0, 0.0, 0.0, 0.0, 123.0, 13.0, 173.0, 0.0, 0.0, 0.0, 1.6558069924166348E9, 0.0, 2022-06-21 19:23:12.416
46.0, 96158.05401302029, 91406.60958368893, 100675.72154709358, 102311.8021859887, 81008.622766569, 87311.6135372655, 86493.27146926778, 83949.35237757592, 113746.01587605667, 96444.55867344841, 49323.32626859263, 90062.91211401368, 108196.48005920411, 105949.0568577119, 89069.08650029737, -187500.02235174447, 0.0, 0.0, 0.0, 196.0, 0.0, 104.0, 0.0, 123.0, 13.0, 181.0, 0.0, 0.0, 0.0, 1.655806992424709E9, 0.0, 2022-06-21 19:23:12.424
48.0, 96432.84635935383, 91433.45402877976, 93886.42387228298, 99486.45227986007, 81140.4980588553, 87450.35081509958, 84657.8356215758, 82771.37074129234, 113889.31290975964, 98177.57882804619, 54838.12747456163, 92739.35469858107, 108188.96987306714, 105919.23963060853, 88950.1975715396, -187500.02235174447, 0.0, 0.0, 0.0, 196.0, 17.0, 168.0, 0.0, 123.0, 13.0, 189.0, 0.0, 0.0, 0.0, 1.6558069924338336E9, 0.0, 2022-06-21 19:23:12.433
50.0, 96135.61286158716, 91438.12554337092, 100362.6406625081, 102178.02699542369, 81006.43229561238, 87310.71946748727, 86444.9022942665, 83937.50595301461, 113597.44383066223, 95795.64282842194, 48431.446961336966, 88901.64958258267, 108228.37599854184, 105956.94702350463, 88934.77486786543, -187500.02235174447, 0.0, 0.0, 0.0, 196.0, 0.0, 0.0, 0.0, 123.0, 13.0, 197.0, 0.0, 0.0, 0.0, 1.6558069924407976E9, 0.0, 2022-06-21 19:23:12.440
52.0, 96435.506216944, 91377.19468798574, 94340.79013357045, 99666.56263668093, 81123.6001400471, 87435.77747771473, 84713.82674143634, 82785.9887821661, 113995.86367557809, 98753.02448904807, 55590.12956501598, 93803.47654860932, 108160.20317795315, 105915.41748230667, 89084.88918362728, -187500.02235174447, 0.0, 0.0, 0.0, 196.0, 0.0, 0.0, 0.0, 123.0, 13.0, 205.0, 0.0, 0.0, 0.0, 1.6558069924488118E9, 0.0, 2022-06-21 19:23:12.448
54.0, 96166.57002765776, 91450.59781677698, 99828.12104560388, 101950.77680954657, 81012.24374917075, 87312.21703436578, 86343.7830023507, 83885.15816750028, 113477.61612863734, 95225.29336515587, 47751.90922640672, 87864.32747415632, 108245.87741445034, 105947.76045653349, 88786.38163642665, -187500.02235174447, 0.0, 0.0, 0.0, 196.0, 0.0, 0.0, 0.0, 123.0, 13.0, 213.0, 0.0, 0.0, 0.0, 1.6558069924568267E9, 0.0, 2022-06-21 19:23:12.456
56.0, 96425.93967031714, 91368.61161811491, 95007.76618811682, 99945.57946271652, 81124.0471749362, 87426.56855899913, 84878.26852539403, 82865.04690230453, 114100.55924660675, 99226.21091916692, 56102.56565839835, 94699.28976288912, 108136.59973580836, 105907.90729616968, 89218.12793232535, -187500.02235174447, 0.0, 0.0, 0.0, 196.0, 0.0, 88.0, 0.0, 123.0, 13.0, 221.0, 0.0, 0.0, 0.0, 1.6558069924658353E9, 0.0, 2022-06-21 19:23:12.465
58.0, 96190.10641456919, 91484.8406892825, 99095.18499316991, 101651.77752396793, 81027.10765923353, 87333.02650845368, 86182.64927657238, 83805.74241945057, 113381.2577582905, 94800.20788910483, 47369.180306098504, 87066.97369420216, 108273.88415025284, 105965.016003253, 88652.673501095, -187500.02235174447, 0.0, 0.0, 0.0, 196.0, 17.0, 128.0, 0.0, 123.0, 13.0, 229.0, 0.0, 0.0, 0.0, 1.6558069924727542E9, 0.0, 2022-06-21 19:23:12.472
60.0, 96368.92037021165, 91348.18212368275, 95808.94211637284, 100280.58740861267, 81106.85868345007, 87407.74839016776, 85058.98237931519, 82963.88631628589, 114186.65816624858, 99556.748516172, 56301.87616370633, 95329.16192163968, 108133.47049158461, 105912.71292122758, 89330.06546855754, -187500.02235174447, 0.0, 0.0, 0.0, 196.0, 0.0, 0.0, 0.0, 123.0, 13.0, 237.0, 0.0, 0.0, 0.0, 1.6558069924819193E9, 0.0, 2022-06-21 19:23:12.481
62.0, 96201.14817633011, 91480.25858166917, 98247.89741610258, 101299.22345867437, 81022.74906906475, 87343.6212353255, 85960.16001226426, 83685.98177265904, 113287.0898589003, 94539.51949352259, 47308.83059606917, 86546.11099316014, 108274.59940607542, 105946.70992454409, 88526.9449385339, -187500.02235174447, 0.0, 0.0, 0.0, 196.0, 0.0, 0.0, 0.0, 123.0, 13.0, 245.0, 0.0, 0.0, 0.0, 1.6558069924898713E9, 0.0, 2022-06-21 19:23:12.489
64.0, 96347.12741936772, 91326.0091931831, 96711.0808743335, 100663.24927368753, 81101.82954094763, 87401.132273809, 85305.00803053475, 83111.7654576022, 114228.50063186893, 99732.85791073536, 56241.39234321027, 95700.29028657559, 108109.93410467317, 105923.19588937711, 89427.22850170475, -187500.02235174447, 0.0, 0.0, 0.0, 196.0, 0.0, 0.0, 0.0, 123.0, 13.0, 253.0, 0.0, 0.0, 0.0, 1.6558069924968977E9, 0.0, 2022-06-21 19:23:12.496
66.0, 96226.71857198699, 91507.30419246008, 97312.83453855927, 100912.35946564192, 81036.40598492694, 87358.75336632173, 85724.8855501277, 83536.53800923086, 113224.14734651416, 94463.34474841891, 47559.10307873524, 86350.84615359857, 108285.23883643614, 105947.62634606677, 88454.79350743217, -187500.02235174447, 0.0, 0.0, 0.0, 196.0, 0.0, 88.0, 0.0, 123.0, 14.0, 5.0, 0.0, 0.0, 0.0, 1.655806992504778E9, 0.0, 2022-06-21 19:23:12.504
68.0, 96331.6376604602, 91330.97128045217, 97630.3410685469, 101047.67692657435, 81087.50207275177, 87384.01083755623, 85541.31067291625, 83254.16842152696, 114241.4199401641, 99737.6411840488, 55849.76742860883, 95748.16772319886, 108106.80486044943, 105921.34069458731, 89489.65692396843, -187500.02235174447, 0.0, 0.0, 0.0, 196.0, 17.0, 176.0, 0.0, 123.0, 14.0, 13.0, 0.0, 0.0, 0.0, 1.6558069925128667E9, 0.0, 2022-06-21 19:23:12.512
70.0, 96278.75343307895, 91512.51214891818, 96364.96411144306, 100520.33221964029, 81054.04151130217, 87383.00500905573, 85479.8210239197, 83389.41882722602, 113221.68865462407, 94564.70990952372, 48090.784024093635, 86465.06356776519, 108289.97740626066, 105948.27454665597, 88418.04723954764, -187500.02235174447, 0.0, 0.0, 0.0, 196.0, 0.0, 0.0, 0.0, 123.0, 14.0, 21.0, 0.0, 0.0, 0.0, 1.6558069925219033E9, 0.0, 2022-06-21 19:23:12.521
72.0, 96278.06052900082, 91328.66905077327, 98530.69168695113, 101422.82860551222, 81071.81114814414, 87366.15179373644, 85785.01174271248, 83409.04365885779, 114231.13813771465, 99564.05753660889, 55206.148947018264, 95487.34521714988, 108111.52107852949, 105944.51945358748, 89520.63644178348, -187500.02235174447, 0.0, 0.0, 0.0, 196.0, 0.0, 0.0, 0.0, 123.0, 14.0, 29.0, 0.0, 0.0, 0.0, 1.655806992528955E9, 0.0, 2022-06-21 19:23:12.528
74.0, 96305.5308229364, 91506.25366047068, 95476.99635946708, 100144.91231976895, 81066.58083994161, 87387.98944806927, 85220.49608474923, 83215.49990361929, 113246.34262875827, 94859.99880552279, 48906.66740020125, 86928.79520997945, 108287.49636262613, 105950.17444493467, 88406.0220010307, -187500.02235174447, 0.0, 0.0, 0.0, 196.0, 0.0, 0.0, 0.0, 123.0, 14.0, 37.0, 0.0, 0.0, 0.0, 1.6558069925369785E9, 0.0, 2022-06-21 19:23:12.536
76.0, 96228.19378712104, 91334.43580084275, 99335.17567338655, 101755.44491475164, 81055.11439503604, 87333.83117125406, 86002.69538196271, 83548.13856460317, 114182.27722433535, 99227.4179133675, 54335.41439001732, 94937.44760006042, 108116.43846230966, 105941.43491285264, 89503.71617123082, -187500.02235174447, 0.0, 0.0, 0.0, 196.0, 0.0, 80.0, 0.0, 123.0, 14.0, 45.0, 0.0, 0.0, 0.0, 1.6558069925449655E9, 0.0, 2022-06-21 19:23:12.544
78.0, 96335.77273318444, 91503.25852671367, 94705.54825133662, 99825.32707754697, 81085.87039540654, 87407.94955586786, 84997.80565474101, 83064.46916633478, 113294.46593457054, 95307.63719172921, 49926.398685741275, 87660.5913234462, 108274.42059211977, 105954.756552548, 88437.29209152366, -187500.02235174447, 0.0, 0.0, 0.0, 196.0, 17.0, 192.0, 0.0, 123.0, 14.0, 53.0, 0.0, 0.0, 0.0, 1.6558069925529768E9, 0.0, 2022-06-21 19:23:12.552
80.0, 96209.3065630563, 91335.24046364313, 99996.42968135234, 102025.11871160493, 81041.03279602919, 87316.01683092318, 86199.21191921376, 83677.77868244394, 114091.5738453357, 98741.89332030933, 53294.35954026694, 94090.58470613774, 108121.15468038974, 105945.27941289895, 89458.05155730863, -187500.02235174447, 0.0, 0.0, 0.0, 196.0, 0.0, 0.0, 0.0, 123.0, 14.0, 61.0, 0.0, 0.0, 0.0, 1.655806992560928E9, 0.0, 2022-06-21 19:23:12.560
82.0, 96403.2079462061, 91492.70850333077, 94098.8101480973, 99567.87968491075, 81095.90632866697, 87413.9845268708, 84802.27259424598, 82920.52393204259, 113388.99146187205, 95871.9293322479, 51066.24824598411, 88628.55596882773, 108256.71801051116, 105940.09380818532, 88510.33759240361, -187500.02235174447, 0.0, 0.0, 0.0, 196.0, 0.0, 0.0, 0.0, 123.0, 14.0, 69.0, 0.0, 0.0, 0.0, 1.6558069925689993E9, 0.0, 2022-06-21 19:23:12.568
84.0, 96163.17256250055, 91335.3075188765, 100464.00582361291, 102212.56044060714, 81012.89194975996, 87303.32104007257, 86335.69167085788, 83786.94460236367, 113977.6023003581, 98135.7140106814, 52108.97947656864, 93047.45114415302, 108134.0739886849, 105952.29786065793, 89368.08578587601, -187500.02235174447, 0.0, 0.0, 0.0, 196.0, 0.0, 0.0, 0.0, 123.0, 14.0, 77.0, 0.0, 0.0, 0.0, 1.6558069925769472E9, 0.0, 2022-06-21 19:23:12.576
86.0, 96391.62974257824, 91460.29847387059, 93726.96652733881, 99413.29502025784, 81103.97530841533, 87430.97185265683, 84666.44104319108, 82833.06155598898, 113486.4897711861, 96525.00260174306, 52256.38923125139, 89762.21409585644, 108223.3915595283, 105923.21824112156, 88597.0623608902, -187500.02235174447, 0.0, 0.0, 0.0, 196.0, 0.0, 96.0, 0.0, 123.0, 14.0, 85.0, 0.0, 0.0, 0.0, 1.6558069925860307E9, 0.0, 2022-06-21 19:23:12.586
88.0, 96145.29116693631, 91363.00133025662, 100727.0188006185, 102331.44936936491, 81024.55956036563, 87305.37740056246, 86465.5553061432, 83892.13191177034, 113853.9748017758, 97460.4007554532, 50911.23889818656, 91847.11776341412, 108165.72405883361, 105958.82457003887, 89265.40187184834, -187500.02235174447, 0.0, 0.0, 0.0, 196.0, 17.0, 184.0, 0.0, 123.0, 14.0, 93.0, 0.0, 0.0, 0.0, 1.655806992593064E9, 0.0, 2022-06-21 19:23:12.593
90.0, 96409.37702767576, 91438.19259860428, 93608.79285440361, 99366.959854002, 81129.7021662834, 87435.33044282561, 84627.01256597192, 82776.8916221728, 113610.1619732573, 97222.35467700419, 53397.602247906005, 90993.45993917703, 108218.76474842605, 105937.34454361732, 88738.191275381, -187500.02235174447, 0.0, 0.0, 0.0, 196.0, 0.0, 0.0, 0.0, 123.0, 14.0, 101.0, 0.0, 0.0, 0.0, 1.6558069926010313E9, 0.0, 2022-06-21 19:23:12.601
92.0, 96138.92091976655, 91379.20634498673, 100751.56101603043, 102336.79143628973, 81008.2651386577, 87292.77101668967, 86499.30644027072, 83930.554560489, 113728.42505317034, 96755.44908707727, 49776.26201823497, 90606.52889091121, 108191.24975100157, 105962.69142182964, 89133.75009700657, -187500.02235174447, 0.0, 0.0, 0.0, 196.0, 0.0, 0.0, 0.0, 123.0, 14.0, 109.0, 0.0, 0.0, 0.0, 1.6558069926080432E9, 0.0, 2022-06-21 19:23:12.608
94.0, 96454.23697879756, 91406.25195577764, 93738.72354492231, 99416.80424413733, 81126.21529414837, 87430.72598346783, 84607.20892038452, 82746.26973226902, 113739.31035272007, 97888.74958619471, 54432.01862955316, 92203.71749445409, 108193.39551846929, 105925.22989812255, 88869.28425661138, -187500.02235174447, 0.0, 0.0, 0.0, 196.0, 0.0, 0.0, 0.0, 123.0, 14.0, 117.0, 0.0, 0.0, 0.0, 1.6558069926170444E9, 0.0, 2022-06-21 19:23:12.617
96.0, 96106.3320763507, 91396.81951961751, 100544.31564144083, 102247.6303276575, 81001.04552519864, 87290.51349049968, 86463.83422182014, 83937.4612495257, 113569.48179834864, 96075.08433760218, 48784.13513709726, 89387.50945180768, 108224.93382989572, 105960.90328227321, 88984.52985102295, -187500.02235174447, 0.0, 0.0, 0.0, 196.0, 0.0, 112.0, 0.0, 123.0, 14.0, 125.0, 0.0, 0.0, 0.0, 1.6558069926250856E9, 0.0, 2022-06-21 19:23:12.625
98.0, 96407.32066718586, 91372.94785653923, 94113.91992734908, 99568.7066994556, 81113.25128236429, 87418.03019261721, 84654.05817676285, 82751.29887477147, 113861.46263616832, 98516.69949492211, 55312.409140158794, 93357.00045311457, 108163.0865529879, 105921.76537773196, 89008.46856933458, -187500.02235174447, 0.0, 0.0, 0.0, 196.0, 17.0, 224.0, 0.0, 123.0, 14.0, 133.0, 0.0, 0.0, 0.0, 1.6558069926331792E9, 0.0, 2022-06-21 19:23:12.633
100.0, 96142.45249539048, 91423.17222633031, 100096.23022034529, 102057.52874106512, 81001.78313276567, 87291.42991202234, 86375.9918661108, 83900.24559500761, 113429.26930538051, 95473.9788739656, 48007.657886464345, 88273.07382501052, 108231.97462939915, 105948.27454665597, 88826.88299737967, -187500.02235174447, 0.0, 0.0, 0.0, 196.0, 0.0, 0.0, 0.0, 123.0, 14.0, 141.0, 0.0, 0.0, 0.0, 1.655806992640133E9, 0.0, 2022-06-21 19:23:12.640
102.0, 96423.68214412716, 91336.80508575501, 94698.1498239219, 99811.69251342924, 81123.89071272501, 87416.33146003861, 84804.99950706953, 82825.10433496289, 113969.13098920955, 99042.0772483441, 55917.49321430841, 94300.1546621507, 108140.57834632139, 105931.42133133666, 89155.25247517259, -187500.02235174447, 0.0, 0.0, 0.0, 196.0, 0.0, 0.0, 0.0, 123.0, 14.0, 149.0, 0.0, 0.0, 0.0, 1.6558069926491349E9, 0.0, 2022-06-21 19:23:12.649
104.0, 96126.18042542702, 91428.04490662157, 99455.24924460045, 101784.54688603246, 81005.53822583417, 87298.42600803685, 86242.17197205687, 83835.1349634093, 113301.70789977408, 94967.37658588607, 47483.9565138765, 87325.44926708333, 108246.83853946193, 105947.13460768874, 88692.07962656971, -187500.02235174447, 0.0, 0.0, 0.0, 196.0, 0.0, 0.0, 0.0, 123.0, 14.0, 157.0, 0.0, 0.0, 0.0, 1.655806992657047E9, 0.0, 2022-06-21 19:23:12.657
106.0, 96383.69487329661, 91328.22201588417, 95456.32099584592, 100125.15337767046, 81123.89071272501, 87402.94276510988, 84982.27119234457, 82921.30624309853, 114059.23087110888, 99434.59623272375, 56273.37768952581, 95035.86233089714, 108119.25478211103, 105909.53897351492, 89277.87414525439, -187500.02235174447, 0.0, 0.0, 0.0, 196.0, 0.0, 96.0, 0.0, 123.0, 14.0, 165.0, 0.0, 0.0, 0.0, 1.655806992664101E9, 0.0, 2022-06-21 19:23:12.664
108.0, 96154.947120541, 91449.79315397659, 98640.95284234916, 101448.06372500227, 81016.71409806181, 87313.111104144, 86048.51645809608, 83732.42869763717, 113227.54481167137, 94624.70199164176, 47280.91326724449, 86671.0572446653, 108268.67619379476, 105954.60009033681, 88575.24705830181, -187500.02235174447, 0.0, 0.0, 0.0, 196.0, 17.0, 192.0, 0.0, 123.0, 14.0, 173.0, 0.0, 0.0, 0.0, 1.6558069926731503E9, 0.0, 2022-06-21 19:23:12.673
110.0, 96351.77658221443, 91301.69049521572, 96328.44136100309, 100496.3711495842, 81095.95103215588, 87392.7280178938, 85183.10161627551, 83050.2534568612, 114122.53101140632, 99681.04656708796, 56310.369826599344, 95541.1011625649, 108109.82234595089, 105931.51073831448, 89381.74270173821, -187500.02235174447, 0.0, 0.0, 0.0, 196.0, 0.0, 0.0, 0.0, 123.0, 14.0, 181.0, 0.0, 0.0, 0.0, 1.6558069926811855E9, 0.0, 2022-06-21 19:23:12.681
112.0, 96243.63884253966, 91467.7416047742, 97732.73440989667, 101083.43971770284, 81017.40700213994, 87342.50364810272, 85813.5549203819, 83609.96348976654, 113164.46818881849, 94475.7946700805, 47386.52525979582, 86334.95406329085, 108277.23691192114, 105964.09958173032, 88476.11707164253, -187500.02235174447, 0.0, 0.0, 0.0, 196.0, 0.0, 0.0, 0.0, 123.0, 14.0, 189.0, 0.0, 0.0, 0.0, 1.655806992689198E9, 0.0, 2022-06-21 19:23:12.689
114.0, 96327.01084935795, 91320.44360881372, 97269.74037524944, 100894.1651456553, 81081.51180523775, 87375.2266019853, 85424.74632558183, 83192.56701380813, 114169.6484887181, 99768.12896348584, 56060.14204742218, 95747.76539179868, 108104.43557553717, 105939.89264248523, 89462.74542364424, -187500.02235174447, 0.0, 0.0, 0.0, 196.0, 0.0, 0.0, 0.0, 123.0, 14.0, 197.0, 0.0, 0.0, 0.0, 1.6558069926962476E9, 0.0, 2022-06-21 19:23:12.696
116.0, 96254.88177000068, 91515.90961407538, 96784.50635486918, 100684.50578266452, 81038.28353146119, 87347.0187004827, 85568.98213255193, 83445.58876104222, 113150.72186597847, 94510.37281875288, 47824.08300925291, 86358.3339879911, 108292.88313303985, 105965.44068639765, 88426.2726815072, -187500.02235174447, 0.0, 0.0, 0.0, 196.0, 0.0, 88.0, 0.0, 123.0, 14.0, 205.0, 0.0, 0.0, 0.0, 1.6558069927052348E9, 0.0, 2022-06-21 19:23:12.705
118.0, 96278.01582551192, 91331.75359150811, 98177.77999374628, 101269.07095540417, 81080.72949418181, 87347.35397664952, 85684.56300313033, 83338.65801556803, 114165.4910642494, 99667.4790582036, 55508.18806984283, 95634.93378578828, 108108.21302035011, 105943.33481113134, 89506.59954626556, -187500.02235174447, 0.0, 0.0, 0.0, 196.0, 17.0, 168.0, 0.0, 123.0, 14.0, 213.0, 0.0, 0.0, 0.0, 1.655806992712258E9, 0.0, 2022-06-21 19:23:12.712
120.0, 96293.48323267499, 91509.98640179473, 95860.61934955351, 100290.77980408429, 81048.72179612181, 87355.40060465343, 85308.60666139206, 83270.97693335735, 113148.79961595531, 94716.61236484199, 48519.468131001966, 86691.35262863072, 108285.88703702534, 105955.67297407068, 88403.9656405408, -187500.02235174447, 0.0, 0.0, 0.0, 196.0, 0.0, 0.0, 0.0, 123.0, 14.0, 221.0, 0.0, 0.0, 0.0, 1.655806992720333E9, 0.0, 2022-06-21 19:23:12.720
122.0, 96254.70295604503, 91305.55734700648, 99022.36300973452, 101609.30920950286, 81056.27668574771, 87320.48717981424, 85899.0726946679, 83476.74709281292, 114115.69137760298, 99386.67409261157, 54735.75648495633, 95200.90761195513, 108106.60369474933, 105928.29208711292, 89503.93968867537, -187500.02235174447, 0.0, 0.0, 0.0, 196.0, 0.0, 0.0, 0.0, 123.0, 14.0, 229.0, 0.0, 0.0, 0.0, 1.6558069927283533E9, 0.0, 2022-06-21 19:23:12.728
124.0, 96330.989459871, 91486.71823581675, 95031.5260924728, 99948.52989298462, 81076.6838284354, 87379.6745991319, 85090.67715295282, 83127.83636186557, 113196.69940432304, 95088.07600594473, 49448.78661022027, 87310.31713608708, 108287.45165913722, 105948.52041584498, 88424.46219020632, -187500.02235174447, 0.0, 0.0, 0.0, 196.0, 0.0, 0.0, 0.0, 123.0, 14.0, 237.0, 0.0, 0.0, 0.0, 1.65580699273736E9, 0.0, 2022-06-21 19:23:12.737
126.0, 96199.44944375151, 91315.1015418889, 99751.87924526683, 101911.32598058296, 81047.55950541014, 87310.94298493183, 86119.61735720842, 83630.01300454295, 114059.3649815756, 98960.47102933777, 53743.719010796434, 94495.97829532366, 108113.30921808592, 105934.63998253823, 89480.82798490858, -187500.02235174447, 0.0, 0.0, 0.0, 196.0, 0.0, 96.0, 0.0, 123.0, 14.0, 245.0, 0.0, 0.0, 0.0, 1.6558069927443447E9, 0.0, 2022-06-21 19:23:12.744
128.0, 96376.4529080931, 91465.46172683976, 94351.09428776435, 99665.84738085835, 81099.37084905754, 87405.3791052555, 84893.24419417909, 82997.3915812244, 113263.48641675549, 95609.00576222013, 50541.07165826222, 88193.25574556061, 108263.57999605895, 105945.27941289895, 88477.2346588653, -187500.02235174447, 0.0, 0.0, 0.0, 196.0, 17.0, 184.0, 0.0, 123.0, 14.0, 253.0, 0.0, 0.0, 0.0, 1.6558069927522948E9, 0.0, 2022-06-21 19:23:12.752
130.0, 96164.22309448995, 91300.19292833722, 100312.68451365049, 102148.03095436466, 81056.1872787699, 87312.35114483252, 86320.64894683946, 83769.39848296625, 113963.58775658462, 98409.72404595901, 52598.23681095085, 93526.2255103857, 108142.50059634454, 105944.05006695392, 89427.04968774911, -187500.02235174447, 0.0, 0.0, 0.0, 196.0, 0.0, 0.0, 0.0, 123.0, 15.0, 5.0, 0.0, 0.0, 0.0, 1.6558069927612765E9, 0.0, 2022-06-21 19:23:12.761
132.0, 96372.34018711331, 91444.27227309612, 93891.45301478542, 99473.42121284262, 81108.17743637293, 87418.00784087276, 84732.95983469007, 82881.14015831235, 113367.98082208405, 96239.99550819345, 51711.27488747536, 89262.56320030251, 108255.46631282168, 105946.79933152192, 88574.08476759015, -187500.02235174447, 0.0, 0.0, 0.0, 196.0, 0.0, 0.0, 0.0, 123.0, 15.0, 13.0, 0.0, 0.0, 0.0, 1.6558069927682831E9, 0.0, 2022-06-21 19:23:12.768
134.0, 96140.41848664505, 91336.08982993243, 100672.32408193637, 102294.79250845821, 81002.92307173289, 87290.66995271087, 86397.00250589878, 83845.19324841419, 113837.27804866768, 97760.29411081006, 51410.487462340294, 92383.04554021903, 108145.83100626839, 105954.756552548, 89312.83227358249, -187500.02235174447, 0.0, 0.0, 0.0, 196.0, 0.0, 0.0, 0.0, 123.0, 15.0, 21.0, 0.0, 0.0, 0.0, 1.6558069927762792E9, 0.0, 2022-06-21 19:23:12.776
136.0, 96423.07864702686, 91437.36558405943, 93662.52644807416, 99379.38742391914, 81110.03263116273, 87419.34894554007, 84625.89497874916, 82790.32502059043, 113493.95525383417, 96915.88990877748, 52894.4868319615, 90448.72557505674, 108217.20012631419, 105944.18417742064, 88671.09133852618, -187500.02235174447, 0.0, 0.0, 0.0, 196.0, 0.0, 96.0, 0.0, 123.0, 15.0, 28.0, 0.0, 0.0, 0.0, 1.6558069927843633E9, 0.0, 2022-06-21 19:23:12.784
138.0, 96130.31549815125, 91336.40275435481, 100806.18867947921, 102349.64368935153, 80996.12814141848, 87275.76133915917, 86464.52712589827, 83906.12410379936, 113711.34832040648, 97076.35308222212, 50258.322090902584, 91151.97851085407, 108169.07682050191, 105961.0597444844, 89189.42829244475, -187500.02235174447, 0.0, 0.0, 0.0, 196.0, 17.5, 80.0, 0.0, 123.0, 15.0, 36.0, 0.0, 0.0, 0.0, 1.6558069927934532E9, 0.0, 2022-06-21 19:23:12.793
140.0, 96441.54118794695, 91397.98181032918, 93691.29314318814, 99398.29699972832, 81126.5505703152, 87426.27798632122, 84602.62681277118, 82755.16572656223, 113619.572057673, 97613.06317008295, 54016.27618268444, 91673.64587469648, 108192.34498647989, 105937.79157850643, 88812.01908731689, -187500.02235174447, 0.0, 0.0, 0.0, 196.0, 0.0, 0.0, 0.0, 123.0, 15.0, 44.0, 0.0, 0.0, 0.0, 1.6558069928004072E9, 0.0, 2022-06-21 19:23:12.800
142.0, 96139.63617558911, 91382.80497584403, 100696.6204281593, 102308.06944466465, 81016.44587712835, 87287.94303988732, 86487.03533256476, 83943.54092401755, 113578.17662694176, 96387.96405648757, 49212.752188772225, 89902.69480975805, 108199.96693133915, 105967.54175037645, 89062.98447406107, -187500.02235174447, 0.0, 0.0, 0.0, 196.0, 0.0, 0.0, 0.0, 123.0, 15.0, 52.0, 0.0, 0.0, 0.0, 1.6558069928104138E9, 0.0, 2022-06-21 19:23:12.810
144.0, 96417.3118969574, 91384.72722586719, 93946.79593405676, 99505.36185566925, 81142.30855015619, 87434.57048351414, 84638.59076959977, 82758.00439810805, 113748.63103015794, 98253.28418651632, 54937.078647265276, 92827.42057173498, 108179.09040201789, 105942.84307275333, 88968.41424327067, -187500.02235174447, 0.0, 0.0, 0.0, 196.0, 0.0, 0.0, 0.0, 123.0, 15.0, 60.0, 0.0, 0.0, 0.0, 1.6558069928174264E9, 0.0, 2022-06-21 19:23:12.817
146.0, 96117.82087300073, 91402.09453130896, 100350.6824792245, 102162.38077430497, 81003.86184500002, 87287.31719104257, 86418.88486372052, 83919.13281907234, 113430.27513388099, 95726.41947584385, 48296.867107971564, 88728.37885956513, 108221.96104788316, 105974.00140452402, 88912.51253038795, -187500.02235174447, 0.0, 0.0, 0.0, 196.0, 0.0, 80.0, 0.0, 123.0, 15.0, 68.0, 0.0, 0.0, 0.0, 1.6558069928244107E9, 0.0, 2022-06-21 19:23:12.824
148.0, 96430.34296397484, 91367.22580995868, 94441.46239059715, 99712.85309944786, 81140.87803851104, 87424.84747467608, 84745.02977669594, 82798.2375381276, 113867.69877287136, 98829.24393764067, 55662.72803100682, 93891.98945665234, 108152.49182611608, 105935.48934882753, 89101.98826813558, -187500.02235174447, 0.0, 0.0, 0.0, 196.0, 17.0, 200.0, 0.0, 123.0, 15.0, 76.0, 0.0, 0.0, 0.0, 1.6558069928324811E9, 0.0, 2022-06-21 19:23:12.832
150.0, 96138.42918138852, 91408.68829592328, 99799.13083304535, 101937.11989368439, 81012.95900499333, 87296.77197894716, 86321.65477533994, 83881.62659187634, 113301.52908581843, 95189.10589088273, 47670.23595216703, 87749.52891463386, 108247.48674005113, 105988.08300353086, 88767.06972921727, -187500.02235174447, 0.0, 0.0, 0.0, 196.0, 0.0, 0.0, 0.0, 123.0, 15.0, 84.0, 0.0, 0.0, 0.0, 1.6558069928405547E9, 0.0, 2022-06-21 19:23:12.840
152.0, 96408.68412359765, 91331.53007406356, 95128.3985529421, 99999.98360872074, 81132.20556166238, 87410.05061984666, 84896.50754886956, 82875.32870475396, 113965.3982478855, 99296.59656245669, 56153.39352528972, 94791.378950045, 108130.29654387195, 105935.93638371663, 89233.12595285487, -187500.02235174447, 0.0, 0.0, 0.0, 196.0, 0.0, 0.0, 0.0, 123.0, 15.0, 92.0, 0.0, 0.0, 0.0, 1.6558069928494513E9, 0.0, 2022-06-21 19:23:12.849
154.0, 96166.9500073135, 91456.94571220229, 99056.31530956212, 101624.57545096583, 81017.85403702904, 87306.74085697424, 86148.27229360012, 83788.33041051989, 113206.6682823501, 94779.26430455022, 47320.16293050801, 86986.50741416305, 108274.21942641967, 105972.74970683453, 88633.36159388562, -187500.02235174447, 0.0, 0.0, 0.0, 196.0, 0.0, 0.0, 0.0, 123.0, 15.0, 100.0, 0.0, 0.0, 0.0, 1.6558069928564804E9, 0.0, 2022-06-21 19:23:12.856
156.0, 96375.69294878161, 91307.92663191874, 95952.03798437573, 100335.01390636133, 81116.8946167105, 87388.81646261412, 85096.64506872238, 82981.52184266112, 114031.62646670658, 99601.07202542688, 56324.38437037282, 95397.55825967292, 108117.4219390657, 105929.27556386896, 89342.98477685271, -187500.02235174447, 0.0, 0.0, 0.0, 196.0, 0.0, 80.0, 0.0, 123.0, 15.0, 108.0, 0.0, 0.0, 0.0, 1.6558069928645017E9, 0.0, 2022-06-21 19:23:12.864
158.0, 96194.46500473798, 91459.22559013672, 98191.01222646383, 101268.04277515922, 81028.40406041194, 87328.62321479598, 85943.03857601149, 83676.61639173227, 113134.31568554828, 94532.09871436343, 47286.545906847234, 86499.70877167092, 108272.07365895197, 105967.25117769852, 88527.86136005657, -187500.02235174447, 0.0, 0.0, 0.0, 196.0, 17.0, 200.0, 0.0, 123.0, 15.0, 116.0, 0.0, 0.0, 0.0, 1.6558069928725023E9, 0.0, 2022-06-21 19:23:12.872
160.0, 96339.57252974184, 91295.00732362358, 96862.20101859582, 100722.86137614983, 81096.77804670073, 87383.78732011167, 85322.33063248762, 83129.60214967754, 114092.3785081361, 99757.40012614729, 56199.281656656465, 95727.33589736652, 108101.4180900357, 105941.65843029719, 89438.62789137696, -187500.02235174447, 0.0, 0.0, 0.0, 196.0, 0.0, 0.0, 0.0, 123.0, 15.0, 124.0, 0.0, 0.0, 0.0, 1.6558069928805633E9, 0.0, 2022-06-21 19:23:12.880
162.0, 96236.70980175851, 91465.8864099844, 97254.04945064182, 100883.50336355012, 81027.15236272245, 87341.54252309115, 85668.29093316686, 83520.69062241205, 113098.1952665085, 94474.297103202, 47565.629788116195, 86347.381633208, 108284.99296724713, 105986.3619192078, 88454.23471382078, -187500.02235174447, 0.0, 0.0, 0.0, 196.0, 0.0, 0.0, 0.0, 123.0, 15.0, 132.0, 0.0, 0.0, 0.0, 1.6558069928896587E9, 0.0, 2022-06-21 19:23:12.889
164.0, 96294.86904083122, 91305.66910572877, 97794.02289319312, 101111.93819188335, 81086.9879826293, 87365.41418616941, 85562.70129235998, 83284.18681433045, 114102.90617977455, 99749.33114639892, 55799.99009370686, 95759.41065065989, 108093.6620347097, 105939.57971806286, 89489.7686826907, -187500.02235174447, 0.0, 0.0, 0.0, 196.0, 0.0, 0.0, 0.0, 123.0, 15.0, 140.0, 0.0, 0.0, 0.0, 1.6558069928965166E9, 0.0, 2022-06-21 19:23:12.896
166.0, 96274.79717431036, 91493.11083473096, 96303.80973861334, 100489.4197570586, 81070.67120917693, 87369.34809319355, 85451.90369509502, 83380.65694339955, 113079.12922848812, 94611.9838490467, 48156.431097558874, 86506.19077756295, 108294.38069991836, 105986.45132618563, 88425.84799836254, -187500.02235174447, 0.0, 0.0, 0.0, 196.0, 0.0, 88.0, 0.0, 123.0, 15.0, 148.0, 0.0, 0.0, 0.0, 1.6558069929055183E9, 0.0, 2022-06-21 19:23:12.905
168.0, 96254.39003162266, 91298.40478878078, 98666.65734847276, 101465.60984439967, 81068.79366264268, 87338.97207247879, 85790.33145789284, 83421.06889737475, 114077.87222598461, 99545.55029219989, 55098.59235269933, 95422.3239925294, 108105.21788659309, 105949.86152051229, 89520.12235166102, -187500.02235174447, 0.0, 0.0, 0.0, 196.0, 17.0, 200.0, 0.0, 123.0, 15.0, 156.0, 0.0, 0.0, 0.0, 1.655806992911527E9, 0.0, 2022-06-21 19:23:12.911
170.0, 96305.26260200294, 91469.73091003072, 95421.02759135098, 100115.05038917666, 81076.4826627353, 87381.44038694387, 85196.04327631513, 83212.8400460291, 113104.72197588945, 94902.53417522123, 48976.203677201716, 86956.71253880413, 108276.61106307639, 105966.29005268695, 88410.17942549937, -187500.02235174447, 0.0, 0.0, 0.0, 196.0, 0.0, 0.0, 0.0, 123.0, 15.0, 164.0, 0.0, 0.0, 0.0, 1.655806992920562E9, 0.0, 2022-06-21 19:23:12.920
172.0, 96225.9139091866, 91300.14822484831, 99458.26673010192, 101801.55656356295, 81051.26989498972, 87317.04501116813, 86023.84013221743, 83573.95482944904, 114035.24744930834, 99183.92141865748, 54192.07265282544, 94817.01640093523, 108109.77764246198, 105961.19385495114, 89508.76766547772, -187500.02235174447, 0.0, 0.0, 0.0, 196.0, 0.0, 0.0, 0.0, 123.0, 15.0, 172.0, 0.0, 0.0, 0.0, 1.6558069929285555E9, 0.0, 2022-06-21 19:23:12.928
174.0, 96337.96320414105, 91488.66283758436, 94669.60664625248, 99812.38541750735, 81088.99963963027, 87402.00399184275, 84976.95147716421, 83065.38558785744, 113183.80244777232, 95371.5631808714, 49997.72310229816, 87741.37052790768, 108269.77142927307, 105973.57672137937, 88454.52528649871, -187500.02235174447, 0.0, 0.0, 0.0, 196.0, 0.0, 0.0, 0.0, 123.0, 15.0, 180.0, 0.0, 0.0, 0.0, 1.6558069929356253E9, 0.0, 2022-06-21 19:23:12.935
176.0, 96154.41067867407, 91321.56119603649, 100102.68987449288, 102067.58702607, 81030.90745579093, 87305.66797324037, 86209.53842515212, 83705.6066042908, 113955.9434599809, 98694.68643601972, 53112.148119467274, 94002.9435161285, 108123.70277925764, 105960.009212495, 89459.83969686505, -187500.02235174447, 0.0, 0.0, 0.0, 196.0, 0.0, 104.0, 0.0, 123.0, 15.0, 188.0, 0.0, 0.0, 0.0, 1.6558069929446645E9, 0.0, 2022-06-21 19:23:12.944
178.0, 96369.47916382304, 91479.05158746858, 94101.5594126653, 99569.84663842281, 81107.26101485027, 87411.4811314918, 84802.83138785737, 82935.4772490832, 113276.31631807284, 95946.87473140654, 51140.433685831274, 88766.04154897232, 108253.58876628743, 105968.92755853267, 88530.72238334685, -187500.02235174447, 0.0, 0.0, 0.0, 196.0, 17.0, 200.0, 0.0, 123.0, 15.0, 196.0, 0.0, 0.0, 0.0, 1.6558069929526453E9, 0.0, 2022-06-21 19:23:12.952
180.0, 96147.97337627094, 91351.78075454006, 100553.2339874785, 102255.40873472796, 81026.39240341097, 87302.29285982763, 86368.10170031808, 83822.7297452366, 113850.0185430072, 98082.98624551133, 51928.667954047676, 92951.58451218421, 108145.31691614592, 105978.47175341508, 89380.96039068227, -187500.02235174447, 0.0, 0.0, 0.0, 196.0, 0.0, 0.0, 0.0, 123.0, 15.0, 204.0, 0.0, 0.0, 0.0, 1.655806992959597E9, 0.0, 2022-06-21 19:23:12.959
182.0, 96381.5491058289, 91474.87181125543, 93765.76915571322, 99433.81392166781, 81120.22502663435, 87424.91452990944, 84692.25730803696, 82850.18299224174, 113383.98467111406, 96602.22787883614, 52308.133519665425, 89910.4732168285, 108253.7005250097, 105956.43293338215, 88642.48110562339, -187500.02235174447, 0.0, 0.0, 0.0, 196.0, 0.0, 0.0, 0.0, 123.0, 15.0, 212.0, 0.0, 0.0, 0.0, 1.6558069929676363E9, 0.0, 2022-06-21 19:23:12.967
184.0, 96098.84424195817, 91364.5212488796, 100801.51716488805, 102354.49401789832, 81010.70147880334, 87285.70786544179, 86468.10340501112, 83905.76647588807, 113725.56402988006, 97408.9470397171, 50757.4812480785, 91776.10627127961, 108166.7298873341, 105976.79537258093, 89273.69436904126, -187500.02235174447, 0.0, 0.0, 0.0, 196.0, 0.0, 0.0, 0.0, 123.0, 15.0, 220.0, 0.0, 0.0, 0.0, 1.6558069929766016E9, 0.0, 2022-06-21 19:23:12.976
186.0, 96393.86491702378, 91447.44622080878, 93663.62168355247, 99390.13861300214, 81116.31347135466, 87426.59091074359, 84615.05438268834, 82785.02765715453, 113504.95231210618, 97298.23884942995, 53472.41353659792, 91155.35362426682, 108209.15349831028, 105948.54276758943, 88763.18052568204, -187500.02235174447, 0.0, 0.0, 0.0, 196.0, 0.0, 96.0, 0.0, 123.0, 15.0, 228.0, 0.0, 0.0, 0.0, 1.6558069929846756E9, 0.0, 2022-06-21 19:23:12.984
188.0, 96108.09786416267, 91391.79037711506, 100801.4948131436, 102351.34242193014, 80994.58587105107, 87281.90806888438, 86490.65631516652, 83950.7158339877, 113582.7587345551, 96713.71838017921, 49634.68606885506, 90535.89737843245, 108192.25557950206, 105975.1636952357, 89136.72287901913, -187500.02235174447, 0.0, 0.0, 0.0, 196.0, 17.5, 88.0, 0.0, 123.0, 15.0, 236.0, 0.0, 0.0, 0.0, 1.6558069929917376E9, 0.0, 2022-06-21 19:23:12.991
190.0, 96421.91635631518, 91431.55413050106, 93805.82348177713, 99448.29785207484, 81112.22310211934, 87424.37808804252, 84598.24587085795, 82754.80809865094, 113634.32420901349, 97963.6726336089, 54479.00199639821, 92342.47712403264, 108184.92420732073, 105946.9557937331, 88897.983896492, -187500.02235174447, 0.0, 0.0, 0.0, 196.0, 0.0, 0.0, 0.0, 123.0, 15.0, 244.0, 0.0, 0.0, 0.0, 1.6558069930007079E9, 0.0, 2022-06-21 19:23:13.000
192.0, 96091.9822564104, 91428.62605197741, 100569.8860370977, 102252.77122888222, 81004.97943222278, 87287.6524672094, 86481.42504470647, 83962.67401727129, 113443.39560787626, 96034.65003188254, 48639.80992314934, 89301.45523565475, 108208.95233261018, 105994.94498907865, 88986.47445279056, -187500.02235174447, 0.0, 0.0, 0.0, 196.0, 0.0, 0.0, 0.0, 123.0, 15.0, 252.0, 0.0, 0.0, 0.0, 1.6558069930086923E9, 0.0, 2022-06-21 19:23:13.008
194.0, 96383.13607968522, 91428.53664499959, 94202.70105632558, 99613.05256045492, 81133.32314888516, 87418.81250367314, 84701.22035756355, 82783.32892457592, 113761.61739368647, 98586.12401320029, 55318.645276861826, 93466.88162885686, 108163.84651229937, 105944.005363465, 89052.5685611449, -187500.02235174447, 0.0, 0.0, 0.0, 196.0, 0.0, 0.0, 0.0, 123.0, 16.0, 4.0, 0.0, 0.0, 0.0, 1.6558069930157273E9, 0.0, 2022-06-21 19:23:13.015
196.0, 96077.63243647008, 91431.4870752677, 100104.6791797494, 102054.26538637465, 81000.44202809835, 87284.43381600783, 86378.9422963789, 83913.18725504723, 113302.19963815209, 95436.85262642535, 47877.25780931208, 88205.70566722222, 108233.38278929982, 105982.38330869477, 88842.1715905871, -187500.02235174447, 0.0, 0.0, 0.0, 196.0, 0.0, 88.0, 0.0, 123.0, 16.0, 12.0, 0.0, 0.0, 0.0, 1.655806993023721E9, 0.0, 2022-06-21 19:23:13.023
198.0, 96366.50638181048, 91356.04993773103, 94799.85026119355, 99852.93148194927, 81119.88975046751, 87403.50155872125, 84811.23564377257, 82832.56981761096, 113856.20997622133, 99099.61063857206, 55917.73908349742, 94412.44982629416, 108139.32664863189, 105946.12877918825, 89177.80538532799, -187500.02235174447, 0.0, 0.0, 0.0, 196.0, 17.5, 80.0, 0.0, 123.0, 16.0, 20.0, 0.0, 0.0, 0.0, 1.6558069930326712E9, 0.0, 2022-06-21 19:23:13.032
200.0, 96121.30774513577, 91445.50161904117, 99448.61077649723, 101780.16594411922, 81008.95804273583, 87292.99453413422, 86237.0534225766, 83843.9415507247, 113182.52839833837, 94947.01414668729, 47383.507774294354, 87305.46680754029, 108255.64512677731, 105981.73510810557, 88696.32645801622, -187500.02235174447, 0.0, 0.0, 0.0, 196.0, 0.0, 0.0, 0.0, 123.0, 16.0, 28.0, 0.0, 0.0, 0.0, 1.6558069930409396E9, 0.0, 2022-06-21 19:23:13.040
202.0, 96361.61134977477, 91371.04795826053, 95567.74444195563, 100177.45645969588, 81125.7012040259, 87398.874747619, 85008.64625080183, 82952.01753998012, 113960.45851236088, 99487.01107347144, 56243.404000211245, 95145.43058221706, 108126.42969208119, 105950.91205250169, 89308.74190434717, -187500.02235174447, 0.0, 0.0, 0.0, 196.0, 0.0, 0.0, 0.0, 123.0, 16.0, 36.0, 0.0, 0.0, 0.0, 1.6558069930478776E9, 0.0, 2022-06-21 19:23:13.047
204.0, 96103.80632922726, 91499.7940063231, 98634.69435390168, 101436.79844579678, 81005.5158740897, 87302.18110110535, 86021.31438509398, 83729.90295051372, 113097.68117638603, 94623.20442476326, 47188.80172834417, 86667.36920683018, 108269.97259497317, 105982.53977090595, 88583.09252060563, -187500.02235174447, 0.0, 0.0, 0.0, 196.0, 0.0, 0.0, 0.0, 123.0, 16.0, 44.0, 0.0, 0.0, 0.0, 1.65580699305674E9, 0.0, 2022-06-21 19:23:13.056
206.0, 96288.54349715037, 91348.83032427196, 96446.3691647493, 100535.66551633662, 81094.3417065551, 87372.63379962849, 85201.02771532866, 83054.27677086316, 114000.53519016925, 99716.09410239388, 56264.638157443784, 95594.76770100209, 108099.3170260569, 105933.74591276002, 89391.04102743162, -187500.02235174447, 0.0, 0.0, 0.0, 196.0, 0.0, 80.0, 0.0, 123.0, 16.0, 52.0, 0.0, 0.0, 0.0, 1.6558069930648203E9, 0.0, 2022-06-21 19:23:13.064
208.0, 96186.46308022298, 91479.18569793532, 97721.42442720228, 101060.50682789169, 81033.2767407032, 87332.55712182011, 85821.46743791908, 83613.49506539048, 113038.35964660165, 94479.66152187128, 47340.36890749561, 86343.76065060624, 108280.05323172252, 105984.99846279604, 88492.54560381718, -187500.02235174447, 0.0, 0.0, 0.0, 196.0, 17.0, 176.0, 0.0, 123.0, 16.0, 60.0, 0.0, 0.0, 0.0, 1.6558069930718007E9, 0.0, 2022-06-21 19:23:13.071
210.0, 96288.96818029502, 91334.50285607611, 97376.51465851245, 100934.77826533059, 81097.42624728993, 87370.55508739414, 85462.83369813368, 83215.03051698572, 114052.83827219467, 99785.40686194978, 55986.42599420858, 95758.22600820375, 108102.17804934717, 105958.7575148055, 89487.35469428953, -187500.02235174447, 0.0, 0.0, 0.0, 196.0, 0.0, 0.0, 0.0, 123.0, 16.0, 68.0, 0.0, 0.0, 0.0, 1.6558069930798457E9, 0.0, 2022-06-21 19:23:13.079
212.0, 96193.45917623749, 91524.55973917959, 96765.17209591533, 100672.1676197252, 81047.02306354321, 87350.43851738436, 85563.28243771582, 83453.12129892365, 113024.63567550608, 94519.08999909044, 47759.911150921725, 86367.25233402877, 108303.79078433405, 105979.63404412677, 88447.95387362885, -187500.02235174447, 0.0, 0.0, 0.0, 196.0, 0.0, 0.0, 0.0, 123.0, 16.0, 76.0, 0.0, 0.0, 0.0, 1.6558069930889215E9, 0.0, 2022-06-21 19:23:13.088
214.0, 96233.53585404585, 91344.42703061427, 98288.24231484442, 101307.69476982293, 81068.86071787604, 87343.64358706995, 85686.48525315349, 83356.20413496545, 114035.58272547516, 99672.82112512841, 55405.5265075596, 95626.10484672843, 108102.51332551401, 105952.4543228691, 89526.1796744084, -187500.02235174447, 0.0, 0.0, 0.0, 196.0, 0.0, 0.0, 0.0, 123.0, 16.0, 84.0, 0.0, 0.0, 0.0, 1.6558069930968823E9, 0.0, 2022-06-21 19:23:13.096
216.0, 96247.97508096398, 91515.77550360865, 95844.81666622362, 100284.23074295888, 81057.30486599266, 87361.7708518232, 85309.70189687036, 83284.09740735262, 113026.26735285133, 94744.82026634458, 48487.54983991979, 86721.54983538984, 108279.29327241103, 105968.32406143237, 88416.25909999122, -187500.02235174447, 0.0, 0.0, 0.0, 196.0, 0.0, 80.0, 0.0, 123.0, 16.0, 92.0, 0.0, 0.0, 0.0, 1.6558069931039133E9, 0.0, 2022-06-21 19:23:13.103
218.0, 96200.455272252, 91310.050047642, 99129.2490517198, 101654.75030598049, 81062.11049105055, 87328.15382816242, 85937.5847503644, 83514.09685779773, 113995.84132383364, 99389.42335717958, 54614.297105586185, 95187.76478621541, 108099.92052315718, 105948.02867746695, 89528.14662792048, -187500.02235174447, 0.0, 0.0, 0.0, 196.0, 17.0, 184.0, 0.0, 123.0, 16.0, 100.0, 0.0, 0.0, 0.0, 1.6558069931119142E9, 0.0, 2022-06-21 19:23:13.111
220.0, 96277.03234875588, 91500.57631737905, 95011.20835676293, 99936.54935795658, 81067.83253763111, 87381.7756631107, 85060.7705188716, 83127.07640255408, 113071.61904235114, 95128.42090468657, 49435.19674959144, 87372.90202056195, 108269.41380136178, 105971.40860216721, 88436.55448395664, -187500.02235174447, 0.0, 0.0, 0.0, 196.0, 0.0, 0.0, 0.0, 123.0, 16.0, 108.0, 0.0, 0.0, 0.0, 1.655806993120949E9, 0.0, 2022-06-21 19:23:13.120
222.0, 96163.70900436748, 91326.12095190537, 99844.03548765606, 101942.6631263093, 81037.05418551614, 87303.16457786139, 86121.04786885357, 83645.99450182849, 113927.02030265574, 98948.53519779864, 53597.4491950809, 94459.72376581715, 108103.78737494796, 105953.37074439178, 89480.96209537532, -187500.02235174447, 0.0, 0.0, 0.0, 196.0, 0.0, 0.0, 0.0, 123.0, 16.0, 116.0, 0.0, 0.0, 0.0, 1.6558069931278827E9, 0.0, 2022-06-21 19:23:13.127
224.0, 96327.6366982027, 91505.89603255941, 94361.33138672488, 99667.25554075904, 81110.3455555851, 87401.84752963156, 84906.40937166326, 83006.75696215116, 113149.38076131116, 95656.12323953191, 50549.72178336642, 88274.52668840012, 108254.41578083228, 105973.62142486828, 88499.04996145368, -187500.02235174447, 0.0, 0.0, 0.0, 196.0, 0.0, 0.0, 0.0, 123.0, 16.0, 124.0, 0.0, 0.0, 0.0, 1.6558069931359742E9, 0.0, 2022-06-21 19:23:13.135
226.0, 96108.07551241822, 91348.00330972712, 100399.76691004836, 102175.21067562231, 81028.33700517858, 87293.5533277456, 86316.24565318176, 83788.24100354208, 113840.89903126944, 98398.2799527979, 52492.46835618834, 93489.65805645681, 108122.56284029041, 105962.33379391835, 89427.87670229396, -187500.02235174447, 0.0, 0.0, 0.0, 196.0, 0.0, 72.0, 0.0, 123.0, 16.0, 132.0, 0.0, 0.0, 0.0, 1.6558069931449838E9, 0.0, 2022-06-21 19:23:13.144
228.0, 96348.82615194633, 91473.77657577713, 93896.12452937658, 99474.51644832092, 81105.62933750503, 87405.11088432204, 84728.6459480102, 82885.69991418123, 113258.03259110841, 96290.93513380708, 51745.58481521426, 89373.33844582301, 108227.81720493046, 105951.53790134644, 88587.49581426333, -187500.02235174447, 0.0, 0.0, 0.0, 196.0, 17.0, 168.0, 0.0, 123.0, 16.0, 140.0, 0.0, 0.0, 0.0, 1.6558069931519582E9, 0.0, 2022-06-21 19:23:13.151
230.0, 96094.41859655603, 91350.81962952849, 100738.55230075745, 102310.1928603879, 81007.05814445713, 87273.36970250246, 86422.23762538882, 83868.90844928127, 113706.90032325988, 97739.12700881089, 51286.837612013536, 92356.04463291701, 108131.30237237245, 105960.97033750659, 89315.1792067503, -187500.02235174447, 0.0, 0.0, 0.0, 196.0, 0.0, 0.0, 0.0, 123.0, 16.0, 148.0, 0.0, 0.0, 0.0, 1.6558069931600444E9, 0.0, 2022-06-21 19:23:13.160
232.0, 96371.15554465719, 91464.32178787254, 93679.24555292673, 99384.23775246594, 81114.92766319844, 87413.5821954706, 84632.15346719665, 82801.52324456254, 113365.32096449388, 96980.26293280875, 52933.93766092511, 90581.98667549928, 108195.56363768145, 105950.66618331269, 88692.52666145882, -187500.02235174447, 0.0, 0.0, 0.0, 196.0, 0.0, 0.0, 0.0, 123.0, 16.0, 156.0, 0.0, 0.0, 0.0, 1.655806993168E9, 0.0, 2022-06-21 19:23:13.168
234.0, 96089.54591626477, 91380.23452523167, 100853.14969457981, 102357.08682025515, 81000.71024903182, 87272.56503970207, 86487.50471919832, 83930.48750525565, 113570.01824021558, 97049.88861678704, 50132.414714385835, 91129.13502802076, 108158.23622444109, 105970.82745681137, 89187.93072556624, -187500.02235174447, 0.0, 0.0, 0.0, 196.0, 0.0, 0.0, 0.0, 123.0, 16.0, 164.0, 0.0, 0.0, 0.0, 1.655806993178005E9, 0.0, 2022-06-21 19:23:13.178
236.0, 96387.74053904302, 91436.7844387036, 93705.15122475043, 99396.68767412755, 81123.93541621392, 87411.05644834715, 84603.76675173841, 82753.73521491709, 113511.97075986514, 97661.11942066187, 54020.902993786694, 91802.9730681149, 108187.82993409991, 105947.98397397804, 88829.94518637004, -187500.02235174447, 0.0, 0.0, 0.0, 196.0, 0.0, 96.0, 0.0, 123.0, 16.0, 172.0, 0.0, 0.0, 0.0, 1.6558069931850789E9, 0.0, 2022-06-21 19:23:13.185
238.0, 96062.09797407365, 91398.96528708522, 100722.81667266092, 102304.67197950745, 81000.24086239826, 87276.00720834818, 86492.60091693413, 83956.6166945239, 113430.00691294753, 96340.6901169646, 49052.49018102768, 89871.93880938755, 108188.8357626004, 105968.01113701, 89048.18761923166, -187500.02235174447, 0.0, 0.0, 0.0, 196.0, 17.0, 160.0, 0.0, 123.0, 16.0, 180.0, 0.0, 0.0, 0.0, 1.6558069931921196E9, 0.0, 2022-06-21 19:23:13.192
240.0, 96375.0000447035, 91415.5279297266, 93988.39253048808, 99525.92546056813, 81134.77601227474, 87429.16136135595, 84649.69958659406, 82768.84499416889, 113629.16095604432, 98314.05857969029, 54941.30312696733, 92975.59028572921, 108170.41792516923, 105966.5135701315, 88980.08185387634, -187500.02235174447, 0.0, 0.0, 0.0, 196.0, 0.0, 0.0, 0.0, 123.0, 16.0, 188.0, 0.0, 0.0, 0.0, 1.6558069932000265E9, 0.0, 2022-06-21 19:23:13.200
242.0, 96072.26801780082, 91434.97394740272, 100363.82530496422, 102152.38954453345, 80993.96002220632, 87268.60878093349, 86419.10838116508, 83926.28537729805, 113285.68169899962, 95710.14740588039, 48165.61766453, 88721.78509495081, 108208.90762912127, 105979.63404412677, 88898.25211742547, -187500.02235174447, 0.0, 0.0, 0.0, 196.0, 0.0, 0.0, 0.0, 123.0, 16.0, 196.0, 0.0, 0.0, 0.0, 1.655806993208039E9, 0.0, 2022-06-21 19:23:13.208
244.0, 96368.33922485581, 91370.44446116024, 94494.88305984534, 99724.09602690888, 81124.0024714473, 87403.25568953225, 84742.21345689458, 82798.10342766088, 113742.32783822154, 98883.58102841151, 55660.96224319485, 94024.58000476123, 108139.10313118734, 105935.71286627208, 89111.1301316178, -187500.02235174447, 0.0, 0.0, 0.0, 196.0, 0.0, 0.0, 0.0, 123.0, 16.0, 204.0, 0.0, 0.0, 0.0, 1.6558069932160523E9, 0.0, 2022-06-21 19:23:13.216
246.0, 96070.39047126657, 91447.9826626757, 99788.22318175116, 101908.5543642705, 81002.54309207715, 87277.05774033758, 86300.95705997433, 83876.91037379627, 113161.69657250603, 95149.07391656327, 47532.23628189997, 87704.6466117676, 108225.78319618502, 105965.37363116427, 88753.83749649972, -187500.02235174447, 0.0, 0.0, 0.0, 196.0, 0.0, 112.0, 0.0, 123.0, 16.0, 212.0, 0.0, 0.0, 0.0, 1.6558069932240176E9, 0.0, 2022-06-21 19:23:13.224
248.0, 96350.9942711585, 91353.43478362975, 95200.05824566583, 100017.6638385849, 81130.21625640587, 87397.28777376268, 84911.55027288798, 82886.01283860361, 113845.88347028298, 99323.95509766998, 56121.58699292982, 94858.21066596636, 108118.4724710551, 105935.91403197218, 89246.62640650588, -187500.02235174447, 0.0, 0.0, 0.0, 196.0, 17.0, 192.0, 0.0, 123.0, 16.0, 220.0, 0.0, 0.0, 0.0, 1.6558069932330856E9, 0.0, 2022-06-21 19:23:13.233
250.0, 96097.81606171324, 91470.26735189765, 99047.62048096901, 101604.6823984006, 81022.30203417565, 87299.54359525963, 86140.44918304076, 83792.1749105662, 113059.30323115627, 94749.89411233594, 47206.571365186144, 86936.03717518297, 108257.34385935591, 105978.27058771499, 88632.9145589965, -187500.02235174447, 0.0, 0.0, 0.0, 196.0, 0.0, 0.0, 0.0, 123.0, 16.0, 228.0, 0.0, 0.0, 0.0, 1.6558069932391527E9, 0.0, 2022-06-21 19:23:13.239
252.0, 96310.49291020547, 91342.50478059112, 96030.69377311395, 100365.88166545412, 81121.47672432385, 87384.77079686771, 85120.74024924521, 83000.92315684834, 113920.11361361905, 99636.45483689962, 56292.01904440154, 95457.75150749106, 108103.29563656994, 105939.28914538493, 89366.63292248642, -187500.02235174447, 0.0, 0.0, 0.0, 196.0, 0.0, 0.0, 0.0, 123.0, 16.0, 236.0, 0.0, 0.0, 0.0, 1.6558069932481377E9, 0.0, 2022-06-21 19:23:13.248
254.0, 96135.23288193141, 91487.56760210605, 98164.95009242895, 101242.78530392473, 81037.32240644962, 87312.41820006588, 85931.39331715027, 83672.72718819705, 112995.69016643646, 94511.53510946454, 47182.76675734124, 86475.32301847018, 108267.93858622773, 105981.35512844982, 88533.6951653594, -187500.02235174447, 0.0, 0.0, 0.0, 196.0, 0.0, 0.0, 0.0, 123.0, 16.0, 244.0, 0.0, 0.0, 0.0, 1.6558069932561648E9, 0.0, 2022-06-21 19:23:13.256
0.0, 96270.55034286385, 91321.6506030143, 96948.07642079312, 100747.06831539492, 81104.19882585989, 87356.49584013174, 85343.31892053115, 83132.26200726772, 113971.00853574378, 99778.36606244637, 56154.891092168225, 95781.4047672039, 108092.7679649315, 105945.81585476588, 89453.82707760658, -187500.02235174447, 0.0, 0.0, 0.0, 196.0, 0.0, 0.0, 0.0, 123.0, 16.0, 252.0, 0.0, 0.0, 0.0, 1.6558069932641523E9, 0.0, 2022-06-21 19:23:13.264
2.0, 96189.45821397999, 91508.91351806087, 97226.26623228386, 100852.16621782377, 81045.83842108709, 87328.9137874739, 85675.8234710483, 83522.54581720184, 112957.15575899552, 94467.61393160987, 47519.272270115885, 86352.20961001035, 108272.27482465206, 105972.86146555681, 88459.50972551224, -187500.02235174447, 0.0, 0.0, 0.0, 196.0, 0.0, 0.0, 0.0, 123.0, 17.0, 4.0, 0.0, 0.0, 0.0, 1.655806993272135E9, 0.0, 2022-06-21 19:23:13.272
4.0, 96253.13833393317, 91307.27843132954, 97874.62328369895, 101125.86332867901, 81082.31646803815, 87336.2675113997, 85568.22217324044, 83275.8049101597, 113991.08040226465, 99750.00169873258, 55736.86876736507, 95774.76629910068, 108093.48322075406, 105946.17348267717, 89505.19138636487, -187500.02235174447, 0.0, 0.0, 0.0, 196.0, 0.0, 0.0, 0.0, 123.0, 17.0, 12.0, 0.0, 0.0, 0.0, 1.655806993280188E9, 0.0, 2022-06-21 19:23:13.280
6.0, 96211.72055145747, 91491.85913704147, 96282.73204359198, 100454.03694558585, 81057.64014215948, 87342.25777891371, 85424.8133808152, 83362.9767135354, 112950.20436646992, 94606.61943037742, 48116.66734417288, 86535.71743198842, 108275.33701364243, 105965.53009337546, 88417.06376279161, -187500.02235174447, 0.0, 0.0, 0.0, 196.0, 0.0, 88.0, 0.0, 123.0, 17.0, 20.0, 0.0, 0.0, 0.0, 1.6558069932883213E9, 0.0, 2022-06-21 19:23:13.288
8.0, 96196.36490301669, 91316.71086748969, 98762.76984963058, 101493.37071101317, 81070.62650568802, 87321.5600635481, 85822.4062111862, 83435.86575220416, 113964.28066066274, 99554.49098998202, 55060.32616619184, 95450.82246670991, 108098.15473534522, 105943.69243904263, 89528.43720059839, -187500.02235174447, 0.0, 0.0, 0.0, 196.0, 17.5, 88.0, 0.0, 123.0, 17.0, 28.0, 0.0, 0.0, 0.0, 1.6558069932972376E9, 0.0, 2022-06-21 19:23:13.297
10.0, 96250.81375250981, 91465.10409892847, 95400.08400679637, 100081.99215912726, 81065.10562480756, 87355.02062499769, 85170.2493632137, 83192.41055159696, 112983.93314885297, 94925.98115515485, 48991.58167738697, 87017.285766278, 108273.2583014081, 105952.92370950268, 88416.37085871349, -187500.02235174447, 0.0, 0.0, 0.0, 196.0, 0.0, 0.0, 0.0, 123.0, 17.0, 36.0, 0.0, 0.0, 0.0, 1.6558069933042052E9, 0.0, 2022-06-21 19:23:13.304
12.0, 96172.15796377158, 91309.46890228617, 99543.27041426545, 101812.39715962377, 81060.45646196086, 87307.32200233007, 86052.62917907587, 83595.50191110396, 113912.7375379488, 99169.63865395053, 54142.67529757921, 94813.88715671148, 108100.63577897976, 105964.94894801962, 89511.40517132345, -187500.02235174447, 0.0, 0.0, 0.0, 196.0, 0.0, 0.0, 0.0, 123.0, 17.0, 44.0, 0.0, 0.0, 0.0, 1.6558069933122613E9, 0.0, 2022-06-21 19:23:13.312
14.0, 96286.12950874919, 91481.75614854768, 94648.01486110865, 99780.26596072507, 81100.57784325813, 87379.45108168735, 84978.560802765, 83066.97256171377, 113053.98351597591, 95389.04224503545, 50022.06415200999, 87785.76109239591, 108262.99885070311, 105961.84205554034, 88468.00338840525, -187500.02235174447, 0.0, 0.0, 0.0, 196.0, 0.0, 0.0, 0.0, 123.0, 17.0, 52.0, 0.0, 0.0, 0.0, 1.6558069933193247E9, 0.0, 2022-06-21 19:23:13.319
16.0, 96116.03273344431, 91310.87706218685, 100183.2455615098, 102078.96406399776, 81042.28449371869, 87284.74674043022, 86240.361480756, 83724.94086324464, 113827.68915029636, 98674.68162473221, 53040.153150576734, 93947.28767243477, 108115.25381985353, 105954.24246242554, 89466.25464752372, -187500.02235174447, 0.0, 0.0, 0.0, 196.0, 0.0, 88.0, 0.0, 123.0, 17.0, 60.0, 0.0, 0.0, 0.0, 1.6558069933273275E9, 0.0, 2022-06-21 19:23:13.327
18.0, 96321.89229987768, 91471.83197400952, 94085.73437759094, 99547.94192885661, 81110.7478869853, 87383.20617475583, 84787.45338767213, 82920.34511808696, 113159.0590666603, 95979.88825796703, 51169.82622979, 88803.03368604585, 108252.73939999813, 105959.31630841689, 88549.76606962277, -187500.02235174447, 0.0, 0.0, 0.0, 196.0, 17.5, 56.0, 0.0, 123.0, 17.0, 68.0, 0.0, 0.0, 0.0, 1.6558069933363588E9, 0.0, 2022-06-21 19:23:13.336
20.0, 96089.6800267315, 91341.76717302408, 100630.9062994607, 102258.69444116288, 81028.02408075621, 87271.76037690167, 86391.30281106268, 83837.10191692137, 113707.70498606027, 98046.888178216, 51846.1900170076, 92858.44479303894, 108139.01372420952, 105953.61661358079, 89368.13048936492, -187500.02235174447, 0.0, 0.0, 0.0, 196.0, 0.0, 0.0, 0.0, 123.0, 17.0, 76.0, 0.0, 0.0, 0.0, 1.6558069933433511E9, 0.0, 2022-06-21 19:23:13.343
22.0, 96361.07490790784, 91453.30237785607, 93750.0782311056, 99412.69152315754, 81129.5010005833, 87407.32370702311, 84680.32147649783, 82838.89536129181, 113267.75559994645, 96645.29969040153, 52385.381148502966, 89947.91238879114, 108229.82886193144, 105951.13556994624, 88652.15941097253, -187500.02235174447, 0.0, 0.0, 0.0, 196.0, 0.0, 0.0, 0.0, 123.0, 17.0, 84.0, 0.0, 0.0, 0.0, 1.6558069933513107E9, 0.0, 2022-06-21 19:23:13.351
24.0, 96082.32630280571, 91356.63108308686, 100846.46652298767, 102345.17334046046, 81019.373955652, 87264.00432157569, 86473.78074810276, 83911.60028119091, 113585.55270261201, 97362.6342252057, 50639.44168561002, 91625.76843807321, 108158.59385235237, 105955.91884325969, 89257.93638920026, -187500.02235174447, 0.0, 0.0, 0.0, 196.0, 0.0, 0.0, 0.0, 123.0, 17.0, 92.0, 0.0, 0.0, 0.0, 1.6558069933603337E9, 0.0, 2022-06-21 19:23:13.360
26.0, 96357.5433322839, 91423.1275228414, 93677.81504128159, 99378.29218844083, 81134.86541925257, 87408.30718377915, 84623.34687988125, 82783.86536644284, 113390.17610432817, 97333.55460566934, 53526.34829596857, 91167.22240057259, 108200.16809703925, 105964.25604394151, 88779.16202296759, -187500.02235174447, 0.0, 0.0, 0.0, 196.0, 0.0, 104.0, 0.0, 123.0, 17.0, 100.0, 0.0, 0.0, 0.0, 1.6558069933683393E9, 0.0, 2022-06-21 19:23:13.368
28.0, 96046.45175295493, 91367.85165880343, 100835.46946471566, 102341.32884041415, 81004.48769384477, 87257.65642615038, 86492.22093727838, 83951.40873806582, 113436.37716011729, 96662.73405107667, 49539.0429543308, 90394.74611219719, 108173.07778275941, 105968.63698585476, 89120.5849195224, -187500.02235174447, 0.0, 0.0, 0.0, 196.0, 17.0, 168.0, 0.0, 123.0, 17.0, 108.0, 0.0, 0.0, 0.0, 1.6558069933753552E9, 0.0, 2022-06-21 19:23:13.375
30.0, 96376.98934996001, 91412.1751680583, 93836.87005482556, 99453.34934632175, 81136.60885532008, 87412.35284952556, 84616.32843212229, 82756.97621786312, 113501.37603299333, 98016.26628831224, 54563.08925903908, 92391.31568566749, 108178.82218108443, 105943.64773555372, 88910.4338181536, -187500.02235174447, 0.0, 0.0, 0.0, 196.0, 0.0, 0.0, 0.0, 123.0, 17.0, 116.0, 0.0, 0.0, 0.0, 1.6558069933834095E9, 0.0, 2022-06-21 19:23:13.383
32.0, 96060.93568336198, 91372.47846990568, 100578.22323777953, 102234.3310397066, 81004.51004558922, 87261.2997604966, 86454.24532344882, 83951.63225551037, 113306.84880099879, 95981.13995565653, 48538.914148678086, 89163.56732410996, 108212.23803904511, 105987.39009945275, 88974.69508346262, -187500.02235174447, 0.0, 0.0, 0.0, 196.0, 0.0, 0.0, 0.0, 123.0, 17.0, 124.0, 0.0, 0.0, 0.0, 1.655806993392324E9, 0.0, 2022-06-21 19:23:13.392
